##TITLE= leere Blende_Ende_5mm_240124
##JCAMP-DX= 4.24
##DATA TYPE= UV/VIS SPECTRUM
##ORIGIN=  Lambda-SPX/P Scan
##OWNER= Optiplex/OPTIPLEX-755
##DATE= 24.01.2024 17:09:08
##SPECTROMETER/DATA SYSTEM= Lambda 19 UV/Vis/NIR
##SAMPLE DESCRIPTION= 240124
##DELTAX= 0.5
##XUNITS= NANOMETERS
##YUNITS= TRANSMITTANCE
$$COMMENT= RTUNITS 0-1
##XFACTOR= 1.0
##YFACTOR= 0.01
##FIRSTX= 190
##LASTX= 2800
##NPOINTS= 5221
##FIRSTY= 1.010843
##MAXY= 1.010929
##MINY= 0.991882
##XYDATA= (XY..XY)
190 101.084256
190.5 100.90493
191 100.423968
191.5 100.463879
192 99.654889
192.5 100.005651
193 99.795216
193.5 100.486338
194 100.140584
194.5 100.594711
195 99.969089
195.5 99.750525
196 100.800276
196.5 99.662566
197 100.679553
197.5 99.930418
198 100.35671
198.5 100.166225
199 100.272369
199.5 100.182462
200 100.096798
200.5 99.901396
201 100.13541
201.5 100.615263
202 99.702936
202.5 100.427365
203 99.927652
203.5 100.409102
204 99.986643
204.5 100.173759
205 100.375259
205.5 100.152946
206 100.414503
206.5 99.965799
207 100.191116
207.5 100.056171
208 100.131536
208.5 100.132203
209 100.450146
209.5 100.139856
210 100.384963
210.5 100.338817
211 100.081515
211.5 100.604701
212 100.141144
212.5 100.373983
213 99.835211
213.5 100.225222
214 99.901396
214.5 100.210512
215 100.139511
215.5 100.267005
216 100.188363
216.5 99.824983
217 100.280643
217.5 99.918038
218 100.247061
218.5 99.882948
219 100.327897
219.5 100.041544
220 100.116813
220.5 100.146174
221 100.016296
221.5 100.479484
222 99.941534
222.5 100.60817
223 99.995226
223.5 100.368905
224 99.931449
224.5 100.309002
225 100.255919
225.5 100.102317
226 100.229347
226.5 100.046313
227 100.31153
227.5 99.712282
228 100.286043
228.5 99.949962
229 100.181282
229.5 100.05486
230 100.046599
230.5 100.120306
231 99.92854
231.5 100.330043
232 99.932337
232.5 100.340331
233 99.888158
233.5 100.431204
234 100.060737
234.5 100.38662
235 100.13864
235.5 100.166154
236 100.498021
236.5 99.993217
237 100.298107
237.5 99.789828
238 100.215924
238.5 99.791861
239 100.328588
239.5 99.928004
240 100.034821
240.5 100.055659
241 100.055313
241.5 100.318289
242 99.881971
242.5 100.328946
243 99.936306
243.5 100.381422
244 100.038743
244.5 100.349402
245 100.075936
245.5 100.135756
246 100.164866
246.5 100.052691
247 100.476491
247.5 99.806756
248 100.350583
248.5 99.87101
249 100.269866
249.5 99.852628
250 100.098813
250.5 100.147378
251 99.944609
251.5 100.244749
252 99.884069
252.5 100.222015
253 99.786139
253.5 100.374377
254 99.916375
254.5 100.151432
255 100.099313
255.5 100.084627
256 100.271082
256.5 99.889415
257 100.317764
257.5 99.90207
258 100.451159
258.5 99.942273
259 100.310075
259.5 100.018525
260 100.085735
260.5 100.103569
261 100.090301
261.5 100.326312
262 99.806356
262.5 100.235748
263 99.705732
263.5 100.374472
264 99.944067
264.5 100.180507
265 100.0175
265.5 100.086713
266 100.232339
266.5 99.920744
267 100.22651
267.5 99.823421
268 100.28348
268.5 100.001836
269 100.195348
269.5 100.072765
270 100.068879
270.5 100.156629
271 100.001621
271.5 100.281537
272 99.917185
272.5 100.278628
273 99.845338
273.5 100.319374
274 99.879277
274.5 100.120604
275 99.982548
275.5 100.027525
276 100.131571
276.5 99.733251
277 100.175083
277.5 99.832851
278 100.261438
278.5 99.891704
279 100.200653
279.5 99.961066
280 100.187492
280.5 100.146377
281 100.109303
281.5 100.238073
282 99.88783
282.5 100.23582
283 99.923313
283.5 100.302923
284 99.969536
284.5 100.066411
285 99.893934
285.5 100.08105
286 100.067151
286.5 100.042355
287 100.092506
287.5 99.825376
288 100.210154
288.5 99.956501
289 100.227308
289.5 99.893427
290 100.073624
290.5 100.064635
291 100.010955
291.5 100.272417
292 99.869543
292.5 100.347805
293 99.823791
293.5 100.368881
294 99.794412
294.5 100.197029
295 100.031638
295.5 100.054193
296 100.16793
296.5 99.858487
297 100.075853
297.5 99.842501
298 100.196958
298.5 99.672276
299 100.170422
299.5 99.934655
300 100.032639
300.5 100.097871
301 99.873734
301.5 100.084448
302 99.856991
302.5 100.348425
303 99.819595
303.5 100.433946
304 99.90958
304.5 100.198531
305 100.18152
305.5 100.046837
306 100.123632
306.5 99.811769
307 100.252414
307.5 99.730194
308 100.257456
308.5 99.72471
309 100.132287
309.5 99.887246
310 100.018501
310.5 100.049496
311 99.801677
311.5 100.187027
312 99.890459
312.5 100.327063
313 99.901825
313.5 100.192797
314 100.022852
314.5 100.152171
315 100.023901
315.5 100.236487
316 100.247777
316.5 99.917841
317 100.099361
317.5 99.930078
318 100.269234
318.5 99.940753
319 100.235748
319.5 100.054169
320 100.172186
320.5 100.255382
321 100.132978
321.5 99.981445
322 100.074887
322.5 100.172603
323 100.036669
323.5 100.035167
324 100.085759
324.5 100.094879
325 100.093734
325.5 100.035763
326 100.235891
326.5 100.080574
327 100.112355
327.5 100.082016
328 100.13808
328.5 100.069916
329 100.03897
329.5 100.086379
330 100.19815
330.5 100.085509
331 100.221908
331.5 100.135112
332 100.145173
332.5 100.030243
333 100.053704
333.5 100.124335
334 100.093699
334.5 100.197518
335 100.147462
335.5 100.04164
336 100.054443
336.5 100.147009
337 100.216639
337.5 100.017357
338 100.161147
338.5 100.117993
339 100.067222
339.5 100.126958
340 100.092363
340.5 100.038242
341 100.112832
341.5 100.093341
342 100.067234
342.5 100.058293
343 100.027776
343.5 100.060439
344 100.023496
344.5 100.097203
345 100.181246
345.5 100.210094
346 100.128388
346.5 100.114191
347 100.022984
347.5 100.072944
348 100.055134
348.5 100.067163
349 100.112116
349.5 100.078523
350 100.141358
350.5 100.153077
351 100.079012
351.5 100.090802
352 99.978888
352.5 100.131094
353 100.028431
353.5 100.110781
354 100.037694
354.5 100.157499
355 100.071919
355.5 100.024974
356 100.048018
356.5 100.101233
357 100.102437
357.5 100.012541
358 100.073254
358.5 100.072515
359 100.185227
359.5 100.044501
360 100.139403
360.5 100.073612
361 100.129843
361.5 100.194478
362 100.11102
362.5 100.0211
363 100.139558
363.5 100.081503
364 100.247836
364.5 100.233674
365 99.975419
365.5 100.096214
366 100.103033
366.5 100.161183
367 100.089967
367.5 100.12455
368 100.119281
368.5 100.172091
369 100.083804
369.5 100.109553
370 99.997693
370.5 100.023663
371 100.052989
371.5 100.113177
372 100.081968
372.5 100.043988
373 100.105309
373.5 100.011253
374 100.119019
374.5 100.27442
375 100.214601
375.5 100.111675
376 99.962384
376.5 100.07565
377 100.206482
377.5 100.066471
378 100.182378
378.5 100.455487
379 100.078356
379.5 100.34374
380 100.059927
380.5 100.133622
381 100.206041
381.5 100.174224
382 100.157535
382.5 100.164127
383 100.100315
383.5 100.143695
384 100.158238
384.5 100.104487
385 99.907786
385.5 100.097609
386 100.115693
386.5 100.058508
387 100.307524
387.5 100.217736
388 100.147212
388.5 100.094903
389 100.161815
389.5 100.088179
390 100.024807
390.5 100.00391
391 99.972242
391.5 99.930394
392 99.960262
392.5 100.313461
393 100.157762
393.5 100.102913
394 100.204349
394.5 99.996507
395 100.210845
395.5 99.995601
396 100.153518
396.5 100.101805
397 100.160372
397.5 100.127029
398 100.211978
398.5 100.186741
399 100.16464
399.5 100.324261
400 100.13566
400.5 99.958491
401 100.074148
401.5 100.210893
402 100.112844
402.5 100.06963
403 100.305188
403.5 100.100207
404 100.06516
404.5 100.161922
405 100.113797
405.5 100.030005
406 100.295317
406.5 100.036919
407 99.972034
407.5 99.985045
408 100.209522
408.5 100.112414
409 100.066817
409.5 100.203836
410 100.083709
410.5 100.135589
411 100.070322
411.5 100.160587
412 100.066197
412.5 100.147986
413 100.159407
413.5 100.008142
414 100.20268
414.5 100.192976
415 100.104713
415.5 100.197482
416 100.034511
416.5 100.079954
417 100.123382
417.5 100.051403
418 100.071907
418.5 100.140905
419 100.13181
419.5 100.111914
420 100.082278
420.5 100.1387
421 100.296128
421.5 100.08781
422 100.131488
422.5 100.18611
423 100.169516
423.5 100.152123
424 100.137877
424.5 100.137365
425 100.09532
425.5 100.14627
426 100.242579
426.5 100.158477
427 100.088918
427.5 100.08719
428 100.175965
428.5 100.005329
429 100.088274
429.5 99.988902
430 100.016987
430.5 100.137568
431 99.950463
431.5 100.155115
432 100.021136
432.5 100.215042
433 100.019658
433.5 100.246215
434 100.194514
434.5 100.201881
435 100.127149
435.5 100.077701
436 100.135601
436.5 100.056696
437 100.065255
437.5 100.017798
438 100.194764
438.5 100.115049
439 100.020409
439.5 100.06032
440 100.13057
440.5 100.20802
441 100.100648
441.5 100.193703
442 100.045991
442.5 100.100517
443 100.078952
443.5 100.061369
444 99.964815
444.5 99.968201
445 100.100029
445.5 100.190628
446 100.052655
446.5 100.142968
447 100.012004
447.5 100.036299
448 100.206923
448.5 100.118327
449 100.165033
449.5 99.989086
450 100.049758
450.5 100.070548
451 100.133431
451.5 100.131297
452 100.055981
452.5 100.165272
453 100.190639
453.5 100.206804
454 100.118065
454.5 100.231612
455 100.027871
455.5 100.120449
456 100.025737
456.5 100.00211
457 100.112784
457.5 100.21615
458 100.095463
458.5 100.073814
459 100.18822
459.5 100.122356
460 100.064719
460.5 100.073314
461 100.146413
461.5 100.021255
462 100.042176
462.5 100.045049
463 100.045431
463.5 100.087261
464 100.138426
464.5 100.207996
465 100.086701
465.5 100.125504
466 99.995905
466.5 100.170457
467 100.087702
467.5 100.149655
468 100.067437
468.5 100.033116
469 100.151777
469.5 100.10227
470 100.086761
470.5 100.166917
471 100.181663
471.5 100.173628
472 100.090444
472.5 100.143147
473 100.063217
473.5 100.134897
474 100.123227
474.5 100.058484
475 100.040948
475.5 100.138223
476 100.11394
476.5 100.061727
477 100.06696
477.5 100.062549
478 100.098741
478.5 100.02234
479 100.163043
479.5 100.031459
480 100.060797
480.5 100.095201
481 100.115263
481.5 100.198185
482 100.028467
482.5 100.094509
483 100.079536
483.5 100.238168
484 100.171769
484.5 100.091755
485 100.113201
485.5 99.999845
486 100.145328
486.5 100.106239
487 100.239301
487.5 100.060105
488 100.129044
488.5 100.193
489 100.174606
489.5 100.113392
490 100.060403
490.5 100.125754
491 100.046504
491.5 100.137579
492 100.17066
492.5 100.111103
493 100.042558
493.5 100.248015
494 100.133789
494.5 100.164604
495 100.05995
495.5 100.142777
496 99.985784
496.5 100.077605
497 100.02948
497.5 100.092518
498 100.075841
498.5 100.103056
499 100.098968
499.5 100.012529
500 100.167406
500.5 100.044763
501 100.176489
501.5 100.169265
502 100.049627
502.5 100.139582
503 100.085962
503.5 100.16557
504 100.02625
504.5 100.193882
505 100.027382
505.5 100.146687
506 100.097251
506.5 100.12902
507 100.167787
507.5 100.016654
508 100.127912
508.5 100.028181
509 100.138521
509.5 99.981952
510 100.101471
510.5 100.110292
511 100.101054
511.5 100.041163
512 100.153971
512.5 100.130343
513 100.054669
513.5 100.133514
514 100.048804
514.5 100.091386
515 100.044787
515.5 100.130892
516 100.083256
516.5 100.12579
517 100.098658
517.5 100.124311
518 100.181556
518.5 100.086486
519 100.117218
519.5 100.015903
520 100.090981
520.5 100.163424
521 100.210917
521.5 100.080574
522 100.002289
522.5 100.090754
523 100.173783
523.5 100.156212
524 100.077093
524.5 100.08626
525 100.160754
525.5 100.086462
526 100.083268
526.5 100.098634
527 100.099468
527.5 100.018489
528 100.162423
528.5 100.12399
529 100.160146
529.5 100.089729
530 100.119197
530.5 100.114334
531 100.098944
531.5 100.090027
532 100.147331
532.5 100.111353
533 100.084066
533.5 100.149512
534 100.177085
534.5 100.210583
535 100.106633
535.5 100.157344
536 100.097454
536.5 100.09073
537 100.135183
537.5 100.08477
538 100.033987
538.5 100.134552
539 100.149143
539.5 100.176632
540 100.162673
540.5 100.135636
541 100.163066
541.5 100.158954
542 100.103235
542.5 100.057971
543 100.143838
543.5 100.154686
544 100.013983
544.5 100.133097
545 100.086546
545.5 100.210059
546 100.034225
546.5 100.063753
547 100.081408
547.5 100.07205
548 100.06398
548.5 100.15806
549 100.054967
549.5 100.035489
550 100.154221
550.5 100.149071
551 100.078297
551.5 100.120342
552 100.048161
552.5 100.119901
553 100.049329
553.5 100.149131
554 100.107384
554.5 100.217927
555 100.101638
555.5 100.148261
556 100.098765
556.5 100.080967
557 100.065148
557.5 100.174391
558 100.101399
558.5 100.053263
559 100.1441
559.5 100.054657
560 100.110674
560.5 100.067067
561 100.134206
561.5 100.11549
562 100.113714
562.5 100.163078
563 100.133562
563.5 100.171399
564 100.243783
564.5 100.121617
565 100.158906
565.5 100.135005
566 100.201154
566.5 100.081086
567 100.211716
567.5 100.243437
568 100.133789
568.5 100.183392
569 100.129974
569.5 100.124145
570 100.128472
570.5 100.172818
571 100.134516
571.5 100.230968
572 100.007987
572.5 100.162005
573 100.176263
573.5 100.173759
574 100.147021
574.5 100.178206
575 100.228095
575.5 100.108755
576 100.166738
576.5 100.117588
577 100.154674
577.5 100.089324
578 100.22999
578.5 100.278258
579 100.112236
579.5 100.124633
580 100.148511
580.5 100.243592
581 100.110137
581.5 100.165951
582 100.130761
582.5 100.218487
583 100.17935
583.5 100.235665
584 100.198257
584.5 100.085926
585 100.145948
585.5 100.206852
586 100.226653
586.5 100.10314
587 100.146866
587.5 100.165069
588 100.151849
588.5 100.169802
589 100.207734
589.5 100.176573
590 100.152004
590.5 100.136662
591 100.102234
591.5 100.192392
592 100.167143
592.5 100.191975
593 100.068808
593.5 100.196135
594 100.122511
594.5 100.14919
595 100.172496
595.5 100.124466
596 100.230956
596.5 100.144827
597 100.154448
597.5 100.086176
598 100.100899
598.5 100.175822
599 100.168133
599.5 100.167894
600 100.107002
600.5 100.104773
601 100.167453
601.5 100.230253
602 100.167191
602.5 100.162232
603 100.127101
603.5 100.211549
604 100.126648
604.5 100.131726
605 100.162303
605.5 100.206089
606 100.160575
606.5 100.108778
607 100.154674
607.5 100.204384
608 100.271797
608.5 100.118065
609 100.14509
609.5 100.149703
610 100.173295
610.5 100.20411
611 100.176668
611.5 100.139189
612 100.092912
612.5 100.257838
613 100.239468
613.5 100.124884
614 100.147974
614.5 100.088203
615 100.229812
615.5 100.124002
616 100.22856
616.5 100.134885
617 100.190532
617.5 100.177526
618 100.163937
618.5 100.244272
619 100.110018
619.5 100.131142
620 100.120366
620.5 100.220585
621 100.137103
621.5 100.200963
622 100.195038
622.5 100.196075
623 100.109708
623.5 100.110805
624 100.16979
624.5 100.144494
625 100.145662
625.5 100.121021
626 100.10289
626.5 100.126743
627 100.139689
627.5 100.159979
628 100.058711
628.5 100.126278
629 100.083625
629.5 100.133586
630 100.102699
630.5 100.150442
631 100.143635
631.5 100.228834
632 100.174522
632.5 100.141609
633 100.145268
633.5 100.235963
634 100.130892
634.5 100.135338
635 100.182045
635.5 100.074387
636 100.164986
636.5 100.110149
637 100.191939
637.5 100.159454
638 100.188565
638.5 100.043774
639 100.039232
639.5 100.128102
640 100.109351
640.5 100.148356
641 100.004613
641.5 100.160527
642 100.125587
642.5 100.207925
643 100.112236
643.5 100.171232
644 100.218451
644.5 100.064886
645 100.180209
645.5 100.118995
646 100.224757
646.5 100.155175
647 100.185513
647.5 100.0947
648 100.111818
648.5 100.1634
649 100.133324
649.5 100.22701
650 100.163102
650.5 100.125158
651 100.10581
651.5 100.208724
652 100.099516
652.5 100.161433
653 100.144875
653.5 100.146341
654 100.13423
654.5 100.195825
655 100.15223
655.5 100.153375
656 100.146699
656.5 100.151408
657 100.219321
657.5 100.106072
658 100.188112
658.5 100.112009
659 100.184751
659.5 100.147641
660 100.198328
660.5 100.086856
661 100.078046
661.5 100.146079
662 100.1755
662.5 100.21652
663 100.173295
663.5 100.260508
664 100.12815
664.5 100.165284
665 100.108528
665.5 100.125992
666 100.093794
666.5 100.137508
667 100.1809
667.5 100.146317
668 100.184953
668.5 100.14143
669 100.10463
669.5 100.117242
670 100.132644
670.5 100.144684
671 100.159764
671.5 100.21708
672 100.157642
672.5 100.251937
673 100.056481
673.5 100.122535
674 100.173199
674.5 100.182199
675 100.172186
675.5 100.130486
676 100.104582
676.5 100.188506
677 100.189924
677.5 100.160837
678 100.087821
678.5 100.170708
679 100.225782
679.5 100.075388
680 100.094354
680.5 100.209665
681 100.076365
681.5 100.196648
682 100.110912
682.5 100.140321
683 100.101352
683.5 100.181162
684 100.153649
684.5 100.259495
685 100.111187
685.5 100.142133
686 100.212526
686.5 100.088692
687 100.099361
687.5 100.169718
688 100.196886
688.5 100.161088
689 100.183046
689.5 100.286376
690 100.144207
690.5 100.147271
691 100.21112
691.5 100.246072
692 100.268638
692.5 100.143337
693 100.110936
693.5 100.066245
694 100.133455
694.5 100.122404
695 100.188637
695.5 100.116253
696 100.106335
696.5 100.164437
697 100.152397
697.5 100.129402
698 100.082612
698.5 100.166011
699 100.152671
699.5 100.105667
700 100.097013
700.5 100.216496
701 100.168085
701.5 100.063169
702 100.239897
702.5 100.237191
703 100.103927
703.5 100.052655
704 100.136447
704.5 100.084496
705 100.152695
705.5 100.037229
706 100.113297
706.5 100.099468
707 100.170302
707.5 100.157797
708 100.105429
708.5 100.051546
709 100.159287
709.5 100.093412
710 100.15564
710.5 100.166798
711 100.086427
711.5 100.042224
712 100.170112
712.5 100.197661
713 100.245142
713.5 100.214756
714 100.153637
714.5 100.144827
715 100.167644
715.5 100.248635
716 100.159097
716.5 100.080514
717 100.059283
717.5 100.172424
718 100.055087
718.5 100.056863
719 100.053895
719.5 100.126076
720 100.122809
720.5 100.218546
721 100.215077
721.5 100.209033
722 100.18518
722.5 100.107992
723 100.253618
723.5 100.061953
724 100.190926
724.5 100.059044
725 100.038302
725.5 100.083184
726 100.201547
726.5 100.156105
727 100.108111
727.5 100.172293
728 100.174594
728.5 100.107801
729 100.050771
729.5 100.102782
730 100.157988
730.5 100.071359
731 100.051916
731.5 100.091827
732 100.193131
732.5 100.168407
733 100.227559
733.5 100.250161
734 100.118089
734.5 100.178576
735 100.153923
735.5 100.058889
736 100.059676
736.5 100.089562
737 100.1948
737.5 100.25667
738 100.162017
738.5 100.201309
739 100.115502
739.5 100.261819
740 100.170672
740.5 100.250554
741 100.214255
741.5 100.040972
742 100.099277
742.5 100.134468
743 100.226879
743.5 100.09222
744 100.048685
744.5 100.12418
745 100.341618
745.5 100.106013
746 100.167465
746.5 100.230181
747 100.118423
747.5 100.210428
748 100.215483
748.5 100.184155
749 100.205517
749.5 100.136149
750 100.177574
750.5 100.138533
751 100.086045
751.5 100.131357
752 100.165033
752.5 100.0615
753 100.197184
753.5 99.963433
754 100.22006
754.5 100.253308
755 100.156701
755.5 100.229251
756 100.138497
756.5 100.09582
757 100.220144
757.5 100.071394
758 100.128043
758.5 100.213051
759 100.108099
759.5 100.032675
760 100.213099
760.5 100.218797
761 100.366819
761.5 100.266659
762 100.089407
762.5 100.32264
763 100.195706
763.5 100.122523
764 100.232124
764.5 100.19244
765 100.172579
765.5 100.135767
766 100.161338
766.5 100.288618
767 100.146317
767.5 100.188458
768 100.159955
768.5 100.187433
769 100.21193
769.5 100.231564
770 100.230026
770.5 100.252378
771 100.278485
771.5 100.294518
772 100.21162
772.5 100.169599
773 100.171447
773.5 100.097704
774 100.084984
774.5 100.244617
775 100.163925
775.5 100.096512
776 100.043535
776.5 100.218034
777 100.301337
777.5 100.311434
778 100.156558
778.5 100.240374
779 100.302196
779.5 100.193751
780 100.257766
780.5 100.188506
781 100.214374
781.5 100.217092
782 100.227821
782.5 100.263584
783 100.199437
783.5 100.23067
784 100.210166
784.5 100.224149
785 100.177956
785.5 100.39978
786 100.179577
786.5 100.272954
787 100.261915
787.5 100.212955
788 100.369608
788.5 100.079393
789 100.090301
789.5 100.151968
790 100.19865
790.5 100.163019
791 100.283098
791.5 100.268662
792 100.092196
792.5 100.210023
793 100.258231
793.5 100.2895
794 100.28882
794.5 100.167155
795 100.196576
795.5 100.401592
796 100.233769
796.5 100.383973
797 100.076425
797.5 100.257921
798 100.339937
798.5 100.259376
799 100.305235
799.5 100.183976
800 100.262511
800.5 100.117147
801 100.268018
801.5 100.193155
802 100.318706
802.5 100.126815
803 100.312376
803.5 100.096357
804 100.118315
804.5 100.041449
805 100.432193
805.5 100.201738
806 100.250566
806.5 100.324297
807 100.22136
807.5 100.31333
808 100.190556
808.5 100.362885
809 100.259817
809.5 100.235045
810 100.362277
810.5 100.561655
811 100.452566
811.5 100.378907
812 100.337505
812.5 100.369096
813 100.082779
813.5 100.233316
814 100.216341
814.5 100.448394
815 100.124788
815.5 100.135589
816 100.539732
816.5 100.356722
817 100.363052
817.5 100.06094
818 100.318122
818.5 100.071633
819 100.336242
819.5 100.405407
820 100.288665
820.5 100.223339
821 100.296819
821.5 100.428033
822 100.252771
822.5 100.274587
823 100.330722
823.5 100.318825
824 100.249588
824.5 100.289083
825 100.201941
825.5 100.478983
826 100.4686
826.5 100.372601
827 100.493634
827.5 100.44241
828 100.487638
828.5 100.34492
829 100.55443
829.5 100.510812
830 100.384486
830.5 100.610185
831 100.632441
831.5 100.552988
832 100.329316
832.5 100.726962
833 100.49746
833.5 100.548732
834 100.243533
834.5 100.586903
835 100.333452
835.5 100.296175
836 100.429809
836.5 100.538135
837 100.464773
837.5 100.601804
838 100.525844
838.5 100.513244
839 100.297296
839.5 100.483835
840 100.341213
840.5 100.366902
841 100.443959
841.5 100.528145
842 100.529277
842.5 100.676358
843 100.628114
843.5 100.66303
844 100.624537
844.5 100.895381
845 100.600731
845.5 100.642145
846 100.704372
846.5 100.624347
847 100.823283
847.5 100.546896
848 100.616956
848.5 100.545216
849 100.588226
849.5 100.518191
850 100.519931
850.5 100.362337
851 100.351441
851.5 100.518036
852 100.288057
852.5 100.428164
853 100.682712
853.5 100.560629
854 100.99287
854.5 100.703752
855 100.520277
855.5 100.625622
856 100.798976
856.5 100.618815
857 100.579798
857.5 101.092947
858 100.637448
858.5 101.00112
859 100.858247
859.5 100.589669
860 100.918519
860.5 100.443983
861 99.984014
861.5 99.613059
862 99.938661
862.5 99.708641
863 99.854803
863.5 99.910992
864 99.714029
864.5 99.942601
865 99.623978
865.5 100.212955
866 99.688816
866.5 99.94629
867 99.801743
867.5 99.943316
868 99.870855
868.5 99.820036
869 99.911392
869.5 99.721366
870 100.045812
870.5 99.728602
871 99.957663
871.5 99.734372
872 99.892712
872.5 99.840504
873 99.781114
873.5 99.949682
874 99.781883
874.5 99.933505
875 99.697012
875.5 99.938411
876 99.637187
876.5 100.000143
877 99.766588
877.5 99.954081
878 99.76902
878.5 99.950421
879 99.983495
879.5 99.786317
880 100.007463
880.5 99.79049
881 99.990088
881.5 99.745435
882 99.914908
882.5 99.806356
883 99.871725
883.5 99.863732
884 99.818647
884.5 99.947244
885 99.68701
885.5 100.037658
886 99.720794
886.5 99.944293
887 99.560732
887.5 100.026977
888 99.919963
888.5 99.943089
889 100.046015
889.5 99.891561
890 100.084782
890.5 99.786294
891 100.18903
891.5 99.786371
892 99.952978
892.5 99.819165
893 100.009978
893.5 99.880308
894 99.681824
894.5 99.931943
895 99.792355
895.5 99.957329
896 99.5745
896.5 99.974209
897 99.763668
897.5 99.895293
898 99.855244
898.5 99.684435
899 99.974614
899.5 99.664438
900 100.054574
900.5 99.757749
901 100.171828
901.5 99.7244
902 100.136685
902.5 99.889892
903 99.86282
903.5 99.901223
904 99.889135
904.5 100.075781
905 99.689621
905.5 100.090897
906 99.653614
906.5 99.815392
907 99.776727
907.5 99.967283
908 99.874187
908.5 99.681228
909 99.995017
909.5 99.825156
910 100.043619
910.5 99.734044
911 100.063586
911.5 99.89416
912 100.020802
912.5 99.862647
913 99.949569
913.5 99.969238
914 99.778324
914.5 100.008547
915 99.891853
915.5 99.97834
916 99.690062
916.5 100.058734
917 99.836206
917.5 99.838084
918 99.914664
918.5 99.954498
919 99.889678
919.5 99.722815
920 99.983633
920.5 99.884361
921 100.019312
921.5 99.745059
922 99.989814
922.5 99.787956
923 99.905741
923.5 99.930292
924 99.808276
924.5 99.944067
925 99.826646
925.5 100.090539
926 99.748975
926.5 100.020909
927 99.726188
927.5 100.033367
928 99.888736
928.5 99.692249
929 99.942195
929.5 99.926126
930 99.91954
930.5 99.666744
931 100.009096
931.5 99.693173
932 99.960679
932.5 99.715346
933 99.880666
933.5 99.931085
934 99.905878
934.5 100.140822
935 99.647039
935.5 100.043368
936 99.724251
936.5 100.215018
937 99.791318
937.5 99.941653
938 99.933451
938.5 99.923688
939 99.990833
939.5 99.73467
940 100.013101
940.5 99.66076
941 100.025833
941.5 99.752808
942 99.930871
942.5 99.867445
943 99.810314
943.5 99.905694
944 99.661589
944.5 99.880874
945 99.676222
945.5 100.098813
946 99.79111
946.5 100.059903
947 99.790007
947.5 100.097132
948 99.886245
948.5 99.859476
949 99.866539
949.5 99.788684
950 100.043118
950.5 99.636501
951 100.04164
951.5 99.844241
952 100.032997
952.5 99.788451
953 99.819332
953.5 99.868983
954 99.625033
954.5 99.989325
955 99.755055
955.5 99.924809
956 99.758631
956.5 100.106382
957 99.863464
957.5 99.912935
958 99.891037
958.5 99.843675
959 100.047803
959.5 99.802744
960 100.086534
960.5 99.753547
961 100.030351
961.5 99.817908
962 100.016797
962.5 99.867809
963 99.82456
963.5 99.815404
964 99.913764
964.5 99.921542
965 99.635702
965.5 100.03047
966 99.751806
966.5 99.950212
967 99.804163
967.5 99.944121
968 99.849325
968.5 99.928272
969 100.08322
969.5 99.84501
970 100.144267
970.5 99.743134
971 100.195169
971.5 99.803185
972 100.051236
972.5 99.839842
973 99.976563
973.5 99.920887
974 99.793047
974.5 99.934196
975 99.812168
975.5 99.97142
976 99.648762
976.5 100.070035
977 99.802285
977.5 99.873382
978 99.864519
978.5 99.733263
979 99.928534
979.5 99.882299
980 100.09371
980.5 99.742943
981 100.010717
981.5 99.800509
982 100.016034
982.5 99.856335
983 99.897993
983.5 99.77358
984 99.901283
984.5 100.047278
985 99.734604
985.5 100.068355
986 99.779946
986.5 100.011361
987 99.769336
987.5 100.048661
988 99.795014
988.5 99.864727
989 99.960774
989.5 99.698085
990 99.935341
990.5 99.688458
991 100.109744
991.5 99.946517
992 99.984717
992.5 99.688834
993 99.954927
993.5 99.952388
994 99.835879
994.5 100.001729
995 99.862319
995.5 100.095403
996 99.757797
996.5 100.10072
997 99.774969
997.5 99.929571
998 99.855816
998.5 99.933141
999 99.87976
999.5 99.766076
1000 99.949014
1000.5 99.688411
1001 100.047874
1001.5 99.668723
1002 100.043321
1002.5 99.851203
1003 99.875909
1003.5 99.899417
1004 99.863398
1004.5 100.009954
1005 99.749422
1005.5 100.136495
1006 99.828464
1006.5 100.073886
1007 99.793965
1007.5 100.077164
1008 99.870068
1008.5 99.94697
1009 99.879873
1009.5 99.902755
1010 99.974537
1010.5 99.657685
1011 99.939436
1011.5 99.586892
1012 99.999785
1012.5 99.716252
1013 99.875689
1013.5 99.916077
1014 99.777943
1014.5 100.068557
1015 99.836498
1015.5 100.014293
1016 99.729484
1016.5 100.200117
1017 99.812245
1017.5 99.987322
1018 99.817437
1018.5 99.964464
1019 100.022936
1019.5 99.869764
1020 99.938446
1020.5 99.746251
1021 100.024486
1021.5 99.772
1022 100.040615
1022.5 99.764222
1023 99.916756
1023.5 99.898314
1024 99.851018
1024.5 99.926788
1025 99.634588
1025.5 100.103879
1026 99.864703
1026.5 100.036347
1027 99.780905
1027.5 100.104594
1028 99.775863
1028.5 99.913043
1029 99.882549
1029.5 99.826789
1030 100.125039
1030.5 99.785978
1031 100.156975
1031.5 99.737352
1032 100.026321
1032.5 99.703932
1033 100.04189
1033.5 99.872833
1034 99.69877
1034.5 99.996251
1035 99.92035
1035.5 100.013518
1036 99.725401
1036.5 100.020182
1037 99.680954
1037.5 100.023806
1038 99.879599
1038.5 99.917608
1039 99.930346
1039.5 99.745655
1040 99.988931
1040.5 99.775606
1041 100.166392
1041.5 99.720347
1042 100.093508
1042.5 99.844939
1043 99.887764
1043.5 99.888492
1044 100.059819
1044.5 99.989957
1045 99.688935
1045.5 100.050163
1046 99.731684
1046.5 99.930632
1047 99.77904
1047.5 99.914873
1048 99.846917
1048.5 99.90871
1049 99.954665
1049.5 99.774098
1050 99.943674
1050.5 99.680519
1051 100.165641
1051.5 99.822652
1052 100.062251
1052.5 99.770916
1053 100.035894
1053.5 99.976426
1054 99.87731
1054.5 99.961394
1055 99.877554
1055.5 100.012994
1056 99.657667
1056.5 100.027382
1057 99.67652
1057.5 99.950278
1058 99.838632
1058.5 99.949104
1059 99.853808
1059.5 99.760962
1060 100.000739
1060.5 99.819762
1061 100.012803
1061.5 99.77181
1062 100.113857
1062.5 99.892282
1063 99.892884
1063.5 99.815148
1064 99.888545
1064.5 99.958742
1065 99.744725
1065.5 100.041008
1066 99.857444
1066.5 99.936706
1067 99.692696
1067.5 100.057828
1068 99.730569
1068.5 99.847299
1069 99.909699
1069.5 99.850541
1070 99.961811
1070.5 99.746346
1071 100.055885
1071.5 99.827647
1072 100.053346
1072.5 99.75785
1073 99.94725
1073.5 99.986774
1074 99.773574
1074.5 99.954176
1075 99.793416
1075.5 100.015104
1076 99.730593
1076.5 100.172043
1077 99.767482
1077.5 99.877155
1078 99.806511
1078.5 100.036585
1079 99.841899
1079.5 99.791747
1080 99.906462
1080.5 99.783432
1081 99.984115
1081.5 99.697745
1082 99.933374
1082.5 99.81342
1083 100.06578
1083.5 99.877656
1084 99.811357
1084.5 99.95935
1085 99.749076
1085.5 100.137556
1086 99.849874
1086.5 100.137424
1087 99.810052
1087.5 100.179267
1088 99.825245
1088.5 99.936342
1089 99.89894
1089.5 99.826664
1090 99.993837
1090.5 99.811995
1091 99.981004
1091.5 99.734628
1092 100.057375
1092.5 99.723607
1093 99.987614
1093.5 99.905157
1094 99.776626
1094.5 99.969471
1095 99.785018
1095.5 99.969125
1096 99.726933
1096.5 100.140095
1097 99.826956
1097.5 100.010705
1098 99.798709
1098.5 100.006914
1099 99.852532
1099.5 99.928749
1100 99.997205
1100.5 99.752623
1101 100.118423
1101.5 99.775845
1102 100.044084
1102.5 99.792999
1103 99.947774
1103.5 99.812108
1104 99.982494
1104.5 99.806321
1105 99.68431
1105.5 100.03593
1106 99.761242
1106.5 99.97313
1107 99.680966
1107.5 100.069284
1108 99.787748
1108.5 99.969965
1109 99.837768
1109.5 99.833375
1110 100.095618
1110.5 99.837154
1111 100.174201
1111.5 99.866372
1112 100.084078
1112.5 99.798
1113 100.19455
1113.5 99.836683
1114 99.824589
1114.5 99.93636
1115 99.883443
1115.5 100.002182
1116 99.7114
1116.5 99.933398
1117 99.614745
1117.5 99.984986
1118 99.699628
1118.5 99.88845
1119 99.888986
1119.5 99.786317
1120 100.025368
1120.5 99.822503
1121 100.054419
1121.5 99.661088
1122 100.318265
1122.5 99.794251
1123 100.00807
1123.5 99.892932
1124 99.993432
1124.5 99.857646
1125 99.832773
1125.5 99.997711
1126 99.80076
1126.5 100.011492
1127 99.745244
1127.5 99.946535
1128 99.67829
1128.5 99.904561
1129 99.809492
1129.5 99.916917
1130 99.900848
1130.5 99.711347
1131 100.127602
1131.5 99.827439
1132 99.965227
1132.5 99.729091
1133 100.197792
1133.5 99.846834
1134 99.840063
1134.5 99.993122
1135 99.899489
1135.5 100.113475
1136 99.776053
1136.5 100.151801
1137 99.650341
1137.5 99.970865
1138 99.701554
1138.5 99.939024
1139 99.883872
1139.5 99.798924
1140 99.970585
1140.5 99.95966
1141 99.924266
1141.5 99.654698
1142 100.091577
1142.5 99.776298
1143 99.863416
1143.5 99.771655
1144 99.900174
1144.5 99.916589
1145 99.920666
1145.5 100.187802
1146 99.78562
1146.5 100.176787
1147 99.729973
1147.5 100.130808
1148 99.816674
1148.5 99.966764
1149 99.793017
1149.5 100.085223
1150 99.913424
1150.5 99.779761
1151 100.026619
1151.5 99.699742
1152 100.027704
1152.5 99.68847
1153 99.938518
1153.5 99.770343
1154 99.962986
1154.5 99.90989
1155 99.766141
1155.5 100.106704
1156 99.701768
1156.5 100.067294
1157 99.833673
1157.5 100.084651
1158 99.807286
1158.5 100.179577
1159 99.941665
1159.5 99.858725
1160 99.959964
1160.5 99.853563
1161 100.050902
1161.5 99.754691
1162 100.095439
1162.5 99.691671
1163 100.018513
1163.5 99.67649
1164 99.87939
1164.5 99.868888
1165 99.772173
1165.5 99.915665
1166 99.789321
1166.5 99.947459
1167 99.693936
1167.5 100.175047
1168 99.80678
1168.5 99.9538
1169 99.861383
1169.5 99.9942
1170 99.860716
1170.5 99.800891
1171 100.05728
1171.5 99.73321
1172 100.070941
1172.5 99.782467
1173 100.022829
1173.5 99.763095
1174 99.908382
1174.5 99.881124
1175 99.975657
1175.5 99.932534
1176 99.615484
1176.5 100.011575
1177 99.75245
1177.5 99.926364
1178 99.744827
1178.5 100.03047
1179 99.842018
1179.5 99.9322
1180 99.950022
1180.5 99.784404
1181 100.042093
1181.5 99.779236
1182 100.136232
1182.5 99.745172
1183 100.017524
1183.5 99.714798
1184 100.006151
1184.5 99.854302
1185 99.881011
1185.5 99.936831
1186 99.819452
1186.5 99.975532
1187 99.703801
1187.5 100.033224
1188 99.720407
1188.5 99.98439
1189 99.907815
1189.5 99.872321
1190 99.986488
1190.5 99.99854
1191 99.687052
1191.5 99.95873
1192 99.683243
1192.5 100.020397
1193 99.858606
1193.5 99.855208
1194 100.088358
1194.5 99.610651
1195 99.881727
1195.5 99.772602
1196 100.142062
1196.5 99.740088
1197 100.012577
1197.5 99.85624
1198 99.9677
1198.5 99.977303
1199 99.816835
1199.5 99.975491
1200 99.808496
1200.5 100.178814
1201 99.765569
1201.5 100.058043
1202 99.863857
1202.5 99.920392
1203 99.842447
1203.5 99.904025
1204 99.900669
1204.5 99.651492
1205 100.031292
1205.5 99.724013
1206 99.96928
1206.5 99.723542
1207 100.042164
1207.5 99.846745
1208 99.977028
1208.5 99.914539
1209 99.787974
1209.5 100.007832
1210 99.891675
1210.5 100.154018
1211 99.806702
1211.5 100.049794
1212 99.774331
1212.5 100.074589
1213 99.788851
1213.5 99.808371
1214 99.898463
1214.5 99.889207
1215 99.975681
1215.5 99.679834
1216 100.048685
1216.5 99.796379
1217 99.881327
1217.5 99.757117
1218 99.938822
1218.5 99.894762
1219 99.836236
1219.5 100.088942
1220 99.861968
1220.5 99.9686
1221 99.805892
1221.5 100.138605
1222 99.761504
1222.5 100.023639
1223 99.881554
1223.5 99.953973
1224 99.920887
1224.5 99.779743
1225 99.897152
1225.5 99.729019
1226 100.024581
1226.5 99.591386
1227 99.945313
1227.5 99.809462
1228 99.89208
1228.5 99.894285
1229 99.791956
1229.5 99.915445
1230 99.699634
1230.5 100.264692
1231 99.737978
1231.5 99.963033
1232 99.761736
1232.5 100.058329
1233 99.856055
1233.5 99.949098
1234 99.837768
1234.5 99.775434
1235 100.153255
1235.5 99.824905
1236 100.078869
1236.5 99.80039
1237 99.965048
1237.5 99.734986
1238 100.003874
1238.5 99.802709
1239 99.723309
1239.5 100.013602
1240 99.839348
1240.5 99.991685
1241 99.683416
1241.5 100.100517
1242 99.763608
1242.5 99.966609
1243 99.832761
1243.5 99.914521
1244 99.909163
1244.5 99.846989
1245 100.088072
1245.5 99.749076
1246 100.107527
1246.5 99.711329
1247 100.030458
1247.5 99.776721
1248 99.82391
1248.5 99.834085
1249 99.924862
1249.5 99.890119
1250 99.778235
1250.5 100.057304
1251 99.662948
1251.5 99.944955
1252 99.745435
1252.5 99.932545
1253 99.776542
1253.5 99.882352
1254 99.957693
1254.5 99.724251
1255 100.083208
1255.5 99.70842
1256 100.090015
1256.5 99.7751
1257 99.947035
1257.5 99.838442
1258 100.061798
1258.5 99.810207
1259 99.841803
1259.5 100.034523
1260 99.84163
1260.5 99.954426
1261 99.648279
1261.5 99.959439
1262 99.702835
1262.5 99.943948
1263 99.80768
1263.5 99.820256
1264 99.909151
1264.5 99.808294
1265 100.015044
1265.5 99.7114
1266 99.998468
1266.5 99.676383
1267 100.129962
1267.5 99.88091
1268 99.902791
1268.5 99.953157
1269 99.965131
1269.5 100.04586
1270 99.764425
1270.5 99.988657
1271 99.721962
1271.5 100.006604
1272 99.805284
1272.5 99.943036
1273 99.77451
1273.5 99.823284
1274 99.913764
1274.5 99.76933
1275 99.994254
1275.5 99.660593
1276 100.014091
1276.5 99.861848
1277 100.035107
1277.5 99.707544
1278 100.045359
1278.5 99.884856
1279 99.841583
1279.5 100.074089
1280 99.827164
1280.5 100.085151
1281 99.716127
1281.5 100.179088
1282 99.682647
1282.5 99.928409
1283 99.854076
1283.5 99.936837
1284 99.86068
1284.5 99.743634
1285 100.004101
1285.5 99.737656
1286 99.950087
1286.5 99.689847
1287 100.008774
1287.5 99.9268
1288 99.937755
1288.5 99.866384
1289 99.894625
1289.5 99.991262
1290 99.750835
1290.5 100.160158
1291 99.785608
1291.5 100.011587
1292 99.819112
1292.5 100.123203
1293 99.797392
1293.5 99.840957
1294 99.862224
1294.5 99.889809
1295 100.0139
1295.5 99.695498
1296 99.974549
1296.5 99.720746
1297 100.050306
1297.5 99.724686
1298 99.874842
1298.5 99.889833
1299 99.844778
1299.5 99.950635
1300 99.802279
1300.5 100.028253
1301 99.710917
1301.5 100.270927
1302 99.880528
1302.5 100.008726
1303 99.795711
1303.5 100.004756
1304 99.917853
1304.5 99.814969
1305 100.018871
1305.5 99.769926
1306 100.059533
1306.5 99.748516
1307 100.029695
1307.5 99.795985
1308 99.97279
1308.5 99.822253
1309 99.93636
1309.5 99.979156
1310 99.667138
1310.5 100.002217
1311 99.87914
1311.5 99.978143
1312 99.760759
1312.5 100.108433
1313 99.81941
1313.5 99.86316
1314 99.894226
1314.5 99.840444
1315 99.984992
1315.5 99.829674
1316 100.018084
1316.5 99.745637
1317 100.090551
1317.5 99.724543
1318 99.959391
1318.5 99.780983
1319 99.830973
1319.5 99.862742
1320 99.858028
1320.5 100.019848
1321 99.550861
1321.5 100.040472
1322 99.825114
1322.5 99.875498
1323 99.723405
1323.5 99.930847
1324 99.93512
1324.5 99.853915
1325 100.057936
1325.5 99.749768
1326 100.160396
1326.5 99.786836
1327 100.189459
1327.5 99.803168
1328 99.972451
1328.5 99.868423
1329 99.95712
1329.5 100.017238
1330 99.688613
1330.5 99.901134
1331 99.74916
1331.5 99.962026
1332 99.647617
1332.5 99.962842
1333 99.850702
1333.5 99.907756
1334 99.925822
1334.5 99.832094
1335 100.028074
1335.5 99.700499
1336 100.233603
1336.5 99.813324
1337 100.113988
1337.5 99.830902
1338 100.051701
1338.5 99.926472
1339 99.881375
1339.5 99.916142
1340 99.902642
1340.5 100.034034
1341 99.788231
1341.5 99.987608
1342 99.764121
1342.5 100.001574
1343 99.760079
1343.5 99.879068
1344 99.984121
1344.5 99.779946
1345 100.009525
1345.5 99.835545
1346 99.997878
1346.5 99.731779
1347 100.238585
1347.5 99.812984
1348 99.80526
1348.5 99.795961
1349 99.941379
1349.5 100.046372
1350 99.970263
1350.5 100.066173
1351 99.801952
1351.5 100.183153
1352 99.72142
1352.5 99.95212
1353 99.771583
1353.5 99.821085
1354 99.722368
1354.5 100.027835
1355 99.924463
1355.5 99.606782
1356 100.081456
1356.5 99.768496
1357 99.944168
1357.5 99.830908
1358 100.013328
1358.5 99.792856
1359 99.856746
1359.5 100.11816
1360 99.810356
1360.5 100.044811
1361 99.852741
1361.5 100.160813
1362 99.821728
1362.5 99.626023
1363 99.931526
1363.5 99.644041
1364 100.045109
1364.5 99.832332
1365 100.17848
1365.5 99.860495
1366 99.980998
1366.5 99.435389
1367 100.010276
1367.5 99.976981
1368 99.927205
1368.5 99.785256
1369 99.782127
1369.5 99.813497
1370 99.710089
1370.5 100.319576
1371 99.772322
1371.5 100.113034
1372 99.720043
1372.5 100.176096
1373 99.793994
1373.5 99.989337
1374 99.858415
1374.5 99.860239
1375 99.961907
1375.5 99.783123
1376 99.912101
1376.5 99.871409
1377 100.00639
1377.5 99.656421
1378 99.968952
1378.5 100.032735
1379 100.029337
1379.5 100.029469
1380 100.138831
1380.5 99.802041
1381 99.497575
1381.5 100.194645
1382 100.085676
1382.5 99.961728
1383 99.771726
1383.5 99.979526
1384 99.9461
1384.5 99.842066
1385 99.997473
1385.5 99.659771
1386 100.164998
1386.5 99.650866
1387 99.982727
1387.5 99.957663
1388 99.855483
1388.5 100.208879
1389 99.771589
1389.5 99.895424
1390 99.734145
1390.5 100.083506
1391 99.92249
1391.5 99.726212
1392 99.451005
1392.5 99.91973
1393 99.952799
1393.5 99.844056
1394 99.899447
1394.5 99.83626
1395 100.024521
1395.5 99.806571
1396 100.184405
1396.5 99.674499
1397 99.972564
1397.5 99.822611
1398 100.102615
1398.5 99.970913
1399 99.684244
1399.5 99.876082
1400 100.030231
1400.5 99.942434
1401 99.892771
1401.5 99.800998
1402 99.714261
1402.5 99.935752
1403 99.822474
1403.5 99.942857
1404 99.614727
1404.5 99.939531
1405 100.276256
1405.5 99.908495
1406 100.022864
1406.5 99.62886
1407 100.102806
1407.5 99.667209
1408 99.962378
1408.5 99.658203
1409 100.283873
1409.5 100.018847
1410 100.059128
1410.5 99.922311
1411 99.75971
1411.5 99.966091
1412 99.711782
1412.5 99.971598
1413 99.722475
1413.5 99.943143
1414 100.076628
1414.5 99.775338
1415 99.989516
1415.5 99.772644
1416 100.021756
1416.5 99.721903
1417 100.038457
1417.5 99.731708
1418 100.03283
1418.5 99.921978
1419 99.806839
1419.5 99.819237
1420 99.892396
1420.5 100.049794
1421 99.698305
1421.5 100.010896
1422 99.752384
1422.5 99.92888
1423 99.808365
1423.5 100.047362
1424 99.889475
1424.5 99.828804
1425 99.98396
1425.5 99.749738
1426 99.957436
1426.5 99.667066
1427 100.013018
1427.5 99.858737
1428 99.957675
1428.5 99.772805
1429 99.950665
1429.5 99.990666
1430 99.822748
1430.5 100.094473
1431 99.812979
1431.5 100.046754
1432 99.816281
1432.5 100.155759
1433 99.850875
1433.5 99.953526
1434 99.990463
1434.5 99.936551
1435 99.954534
1435.5 99.799126
1436 100.055206
1436.5 99.787229
1437 99.935794
1437.5 99.62824
1438 100.034201
1438.5 99.867392
1439 99.794775
1439.5 99.927592
1440 99.803913
1440.5 99.906683
1441 99.793196
1441.5 100.11946
1442 99.737358
1442.5 100.154293
1443 99.870676
1443.5 100.093615
1444 100.01049
1444.5 99.867296
1445 99.860418
1445.5 99.909145
1446 100.035572
1446.5 99.754107
1447 100.02507
1447.5 99.730796
1448 99.982363
1448.5 99.871457
1449 99.898678
1449.5 99.79983
1450 99.75962
1450.5 100.097036
1451 99.797374
1451.5 100.034142
1452 99.819326
1452.5 100.166869
1453 99.951792
1453.5 99.973768
1454 99.8402
1454.5 100.038409
1455 100.022709
1455.5 99.783814
1456 99.966818
1456.5 99.777669
1457 99.969858
1457.5 99.766403
1458 100.026977
1458.5 99.733478
1459 99.858183
1459.5 99.936414
1460 99.872452
1460.5 100.032461
1461 99.885678
1461.5 100.088465
1462 99.878091
1462.5 100.112867
1463 99.746478
1463.5 100.022304
1464 99.882472
1464.5 99.810666
1465 99.930805
1465.5 99.907404
1466 99.962854
1466.5 99.716789
1467 100.189519
1467.5 99.784505
1468 100.028408
1468.5 99.776256
1469 99.961334
1469.5 99.856746
1470 99.833065
1470.5 99.86431
1471 99.88302
1471.5 100.035465
1472 99.632174
1472.5 100.023913
1473 99.755621
1473.5 99.91098
1474 99.905431
1474.5 99.951428
1475 99.947786
1475.5 99.879271
1476 100.091314
1476.5 99.676967
1477 100.015759
1477.5 99.811554
1478 100.17705
1478.5 99.883932
1479 99.911755
1479.5 99.800336
1480 100.02259
1480.5 99.982071
1481 99.765038
1481.5 100.023985
1482 99.85522
1482.5 100.039303
1483 99.719298
1483.5 99.94145
1484 99.73805
1484.5 99.943441
1485 99.893117
1485.5 99.765766
1486 100.001562
1486.5 99.658251
1487 100.153983
1487.5 99.915487
1488 100.049365
1488.5 99.767584
1489 100.134754
1489.5 99.896055
1490 99.94697
1490.5 99.970961
1491 99.899894
1491.5 100.097513
1492 99.842244
1492.5 100.07329
1493 99.733412
1493.5 99.959248
1494 99.750799
1494.5 99.995577
1495 99.830621
1495.5 99.725628
1496 100
1496.5 99.795765
1497 99.969125
1497.5 99.746501
1498 100.091434
1498.5 99.760455
1499 99.957365
1499.5 99.773771
1500 99.891758
1500.5 100.035453
1501 99.893022
1501.5 100.075877
1502 99.883336
1502.5 100.189662
1503 99.735886
1503.5 100.158358
1504 99.75425
1504.5 99.832362
1505 99.853194
1505.5 99.990219
1506 99.91799
1506.5 99.763274
1507 100.022972
1507.5 99.683803
1508 99.965507
1508.5 99.682915
1509 99.898809
1509.5 99.865741
1510 99.917966
1510.5 99.908119
1511 99.875289
1511.5 99.991155
1512 99.792707
1512.5 100.158834
1513 99.814588
1513.5 100.048852
1514 99.835581
1514.5 100.092137
1515 99.826533
1515.5 99.853587
1516 99.868613
1516.5 99.862319
1517 100.077963
1517.5 99.728698
1518 99.978352
1518.5 99.73312
1519 99.945295
1519.5 99.765229
1520 99.948412
1520.5 99.924207
1521 99.716318
1521.5 100.058389
1522 99.910396
1522.5 99.961865
1523 99.745178
1523.5 100.131214
1524 99.866343
1524.5 99.876714
1525 99.858415
1525.5 99.861962
1526 99.933749
1526.5 99.869889
1527 100.067008
1527.5 99.760467
1528 100.017607
1528.5 99.665558
1529 100.095582
1529.5 99.839926
1530 99.898672
1530.5 99.887884
1531 99.860722
1531.5 99.957508
1532 99.606013
1532.5 99.99994
1533 99.831253
1533.5 99.985689
1534 99.786228
1534.5 100.07329
1535 99.954808
1535.5 99.923843
1536 99.976432
1536.5 99.840963
1537 100.084865
1537.5 99.822038
1538 100.179064
1538.5 99.743932
1539 100.053489
1539.5 99.859107
1540 99.97986
1540.5 99.904186
1541 99.826843
1541.5 99.996984
1542 99.848855
1542.5 100.063503
1543 99.645287
1543.5 99.963748
1544 99.887502
1544.5 99.969405
1545 99.784279
1545.5 99.885291
1546 99.928701
1546.5 99.789542
1547 100.165927
1547.5 99.731499
1548 100.027525
1548.5 99.806368
1549 100.066888
1549.5 99.879611
1550 100.013375
1550.5 99.918032
1551 99.881029
1551.5 100.059605
1552 99.761778
1552.5 99.918795
1553 99.736452
1553.5 99.984294
1554 99.750173
1554.5 100.017285
1555 99.83089
1555.5 99.782491
1556 99.950802
1556.5 99.872762
1557 99.954945
1557.5 99.705404
1558 100.175536
1558.5 99.809414
1559 100.017893
1559.5 99.889582
1560 100.022638
1560.5 99.981797
1561 99.833745
1561.5 99.971843
1562 99.767596
1562.5 100.082076
1563 99.777693
1563.5 100.080764
1564 99.820399
1564.5 99.883324
1565 99.779743
1565.5 99.984831
1566 99.847549
1566.5 99.703854
1567 100.109744
1567.5 99.774444
1568 100.04046
1568.5 99.822271
1569 100.078487
1569.5 99.817073
1570 99.948758
1570.5 99.896085
1571 99.839008
1571.5 100.060141
1572 99.790871
1572.5 100.093412
1573 99.748164
1573.5 100.081265
1574 99.735391
1574.5 100.016391
1575 99.800909
1575.5 99.832237
1576 99.965084
1576.5 99.915659
1577 99.987274
1577.5 99.717039
1578 100.070179
1578.5 99.777263
1579 99.955541
1579.5 99.878049
1580 99.932611
1580.5 99.905014
1581 99.926358
1581.5 100.048637
1582 99.690151
1582.5 99.952316
1583 99.766141
1583.5 100.09315
1584 99.76452
1584.5 99.904943
1585 99.721789
1585.5 99.961281
1586 99.977177
1586.5 99.822509
1587 100.004673
1587.5 99.825883
1588 100.030148
1588.5 99.746573
1589 99.983805
1589.5 99.768597
1590 99.93962
1590.5 99.895269
1591 99.709743
1591.5 99.94055
1592 99.748582
1592.5 100.036395
1593 99.819791
1593.5 100.016618
1594 99.765235
1594.5 100.100207
1595 99.868739
1595.5 99.826711
1596 99.913561
1596.5 99.879992
1597 99.980974
1597.5 99.776185
1598 100.102913
1598.5 99.820137
1599 99.972928
1599.5 99.880385
1600 99.872714
1600.5 99.717903
1601 99.807078
1601.5 99.989706
1602 99.756896
1602.5 100.031805
1603 99.729437
1603.5 100.055432
1604 99.830043
1604.5 99.928325
1605 99.703217
1605.5 99.914104
1606 99.94511
1606.5 99.789542
1607 100.097477
1607.5 99.81336
1608 99.997169
1608.5 99.8254
1609 100.127923
1609.5 99.77662
1610 99.93068
1610.5 99.859184
1611 99.993527
1611.5 99.980819
1612 99.769968
1612.5 99.955201
1613 99.668705
1613.5 100.003684
1614 99.653006
1614.5 99.943262
1615 99.803138
1615.5 99.908495
1616 99.943137
1616.5 99.833679
1617 99.989319
1617.5 99.730241
1618 100.196028
1618.5 99.827218
1619 100.015283
1619.5 99.777216
1620 99.982458
1620.5 99.822855
1621 99.874747
1621.5 99.995303
1622 99.821854
1622.5 100.005674
1623 99.707806
1623.5 99.985719
1624 99.737251
1624.5 100.012755
1625 99.844098
1625.5 99.961042
1626 99.922276
1626.5 99.74612
1627 100.101292
1627.5 99.776065
1628 99.911118
1628.5 99.719095
1629 100.175905
1629.5 99.760807
1630 99.953294
1630.5 99.870533
1631 99.934006
1631.5 99.974269
1632 99.824435
1632.5 99.9502
1633 99.834645
1633.5 100.091493
1634 99.631584
1634.5 99.957693
1635 99.800885
1635.5 99.923265
1636 99.903584
1636.5 99.94936
1637 99.904591
1637.5 99.65679
1638 100.064266
1638.5 99.823684
1639 99.998796
1639.5 99.696314
1640 99.994755
1640.5 99.885935
1641 99.92336
1641.5 99.866164
1642 99.885422
1642.5 100.123358
1643 99.728733
1643.5 100.160897
1644 99.767458
1644.5 100.010216
1645 99.809569
1645.5 100.03078
1646 99.866575
1646.5 99.917167
1647 100.015128
1647.5 99.819463
1648 100.061524
1648.5 99.68937
1649 99.992287
1649.5 99.736524
1650 99.944693
1650.5 99.869186
1651 99.922979
1651.5 99.89444
1652 99.826312
1652.5 100.105309
1653 99.827927
1653.5 100.041711
1654 99.812537
1654.5 100.144994
1655 99.841422
1655.5 100.066233
1656 99.901748
1656.5 99.946284
1657 99.976373
1657.5 99.790615
1658 99.968791
1658.5 99.749929
1659 99.950749
1659.5 99.556625
1660 99.921477
1660.5 99.773747
1661 99.856579
1661.5 99.885428
1662 99.787492
1662.5 99.936861
1663 99.720508
1663.5 100.054622
1664 99.81122
1664.5 100.061774
1665 99.75034
1665.5 100.201166
1666 99.930292
1666.5 99.85674
1667 99.910438
1667.5 99.882507
1668 100.056565
1668.5 99.774265
1669 100.048614
1669.5 99.652046
1670 99.920529
1670.5 99.777794
1671 100.05604
1671.5 99.764156
1672 100.058973
1672.5 99.751759
1673 100.001109
1673.5 99.714458
1674 100.052607
1674.5 99.921626
1675 99.757534
1675.5 99.95662
1676 99.837679
1676.5 99.950236
1677 99.663115
1677.5 99.995303
1678 99.795681
1678.5 100.001144
1679 99.814361
1679.5 99.897611
1680 99.876404
1680.5 99.815816
1681 100.034332
1681.5 99.839061
1682 100.087571
1682.5 99.733388
1683 100.164819
1683.5 99.713755
1684 99.961543
1684.5 99.919808
1685 99.936694
1685.5 99.880499
1686 99.790406
1686.5 99.906957
1687 99.682027
1687.5 99.959648
1688 99.638128
1688.5 99.979216
1689 99.874014
1689.5 99.860853
1690 99.96869
1690.5 99.868518
1691 99.99463
1691.5 99.691015
1692 100.103867
1692.5 99.773341
1693 100.014412
1693.5 99.801934
1694 100.045717
1694.5 99.91203
1695 99.860132
1695.5 99.860764
1696 99.903965
1696.5 100.048566
1697 99.769175
1697.5 99.978679
1698 99.718148
1698.5 99.921143
1699 99.781489
1699.5 99.885058
1700 99.696285
1700.5 99.765992
1701 100.043046
1701.5 99.809587
1702 99.962336
1702.5 99.72291
1703 100.147116
1703.5 99.8505
1704 99.988365
1704.5 99.775165
1705 100.042987
1705.5 100.02284
1706 99.780273
1706.5 100.13473
1707 99.795794
1707.5 99.970615
1708 99.738914
1708.5 100.019825
1709 99.761522
1709.5 99.902087
1710 99.736696
1710.5 99.758697
1711 99.878532
1711.5 99.692285
1712 99.910343
1712.5 99.789852
1713 99.997091
1713.5 99.683464
1714 100.118113
1714.5 99.813408
1715 99.870622
1715.5 99.92792
1716 99.873793
1716.5 100.017321
1717 99.857098
1717.5 100.126469
1718 99.839258
1718.5 100.04425
1719 99.754643
1719.5 100.053155
1720 99.862242
1720.5 99.801844
1721 99.919808
1721.5 99.883807
1722 99.985117
1722.5 99.631566
1723 99.945396
1723.5 99.673045
1724 99.934089
1724.5 99.771488
1725 99.902552
1725.5 99.900955
1726 99.855769
1726.5 100.083435
1727 99.752283
1727.5 99.914062
1728 99.767524
1728.5 100.223768
1729 99.833989
1729.5 100.047874
1730 99.80191
1730.5 99.966443
1731 99.993658
1731.5 99.785608
1732 99.953651
1732.5 99.801737
1733 100.018787
1733.5 99.751091
1734 99.994886
1734.5 99.61893
1735 99.853748
1735.5 99.871266
1736 99.864894
1736.5 99.914277
1737 99.731129
1737.5 100.027621
1738 99.832273
1738.5 100.035584
1739 99.699336
1739.5 100.170362
1740 99.837279
1740.5 99.941206
1741 99.846989
1741.5 99.891782
1742 99.998885
1742.5 99.785584
1743 100.162482
1743.5 99.75242
1744 100.026035
1744.5 99.700755
1745 99.931598
1745.5 99.850762
1746 99.875855
1746.5 99.970192
1747 99.896061
1747.5 99.915177
1748 99.672502
1748.5 100.055087
1749 99.690717
1749.5 99.895954
1750 99.713945
1750.5 99.885052
1751 99.913776
1751.5 99.819982
1752 99.982387
1752.5 99.7688
1753 99.966538
1753.5 99.6957
1754 100.104737
1754.5 99.694127
1755 99.938953
1755.5 99.811906
1756 100.033689
1756.5 99.827582
1757 99.78559
1757.5 99.913985
1758 99.787599
1758.5 99.929565
1759 99.568444
1759.5 99.958247
1760 99.694276
1760.5 99.910635
1761 99.910873
1761.5 99.943393
1762 99.971265
1762.5 99.721456
1763 100.015783
1763.5 99.777311
1764 99.968719
1764.5 99.710536
1765 100.163484
1765.5 99.869996
1766 99.878478
1766.5 99.932307
1767 99.828094
1767.5 99.953145
1768 99.798435
1768.5 99.982327
1769 99.679351
1769.5 100.012922
1770 99.6916
1770.5 100.027919
1771 99.924535
1771.5 99.820501
1772 99.816972
1772.5 99.79471
1773 99.9044
1773.5 99.590105
1774 100.015771
1774.5 99.744678
1775 100.020337
1775.5 99.788684
1776 100.028467
1776.5 99.882001
1777 99.753594
1777.5 99.88451
1778 99.749643
1778.5 99.984455
1779 99.724603
1779.5 100.158048
1780 99.652243
1780.5 99.963516
1781 99.768174
1781.5 99.972916
1782 99.814355
1782.5 99.791896
1783 99.923104
1783.5 99.758774
1784 99.961519
1784.5 99.707979
1785 100.011456
1785.5 99.774915
1786 99.988449
1786.5 99.831355
1787 99.848139
1787.5 99.891877
1788 99.756175
1788.5 100.067472
1789 99.774283
1789.5 99.984044
1790 99.782515
1790.5 100.182784
1791 99.837202
1791.5 99.912781
1792 99.81966
1792.5 99.910903
1793 99.946779
1793.5 99.766135
1794 99.992859
1794.5 99.780232
1795 99.991494
1795.5 99.797153
1796 100.047696
1796.5 99.784386
1797 99.812293
1797.5 99.910611
1798 99.823618
1798.5 99.975789
1799 99.632311
1799.5 100.065219
1800 99.924582
1800.5 100.052309
1801 99.79406
1801.5 100.045705
1802 99.852443
1802.5 99.809474
1803 99.926835
1803.5 99.765521
1804 100.155735
1804.5 99.779117
1805 99.990255
1805.5 99.749154
1806 99.973726
1806.5 99.816608
1807 99.952036
1807.5 99.803305
1808 99.740851
1808.5 99.992478
1809 99.7585
1809.5 99.832273
1810 99.740696
1810.5 100.137579
1811 99.791509
1811.5 99.918914
1812 99.859321
1812.5 99.812216
1813 99.977279
1813.5 99.801481
1814 99.961048
1814.5 99.763364
1815 100.204635
1815.5 99.796909
1816 100.120378
1816.5 99.758053
1817 99.800026
1817.5 99.988109
1818 99.948162
1818.5 99.946129
1819 99.583071
1819.5 99.837494
1820 99.688971
1820.5 100.005376
1821 99.716055
1821.5 100.017369
1822 99.768013
1822.5 99.751437
1823 100.021982
1823.5 99.76176
1824 100.002873
1824.5 99.640048
1825 100.283337
1825.5 99.847996
1826 100.161767
1826.5 99.736977
1827 100.163102
1827.5 99.831671
1828 99.886388
1828.5 99.756765
1829 99.845147
1829.5 100.141382
1830 99.727446
1830.5 99.974459
1831 99.782521
1831.5 99.908346
1832 99.807769
1832.5 99.827296
1833 99.882972
1833.5 99.609512
1834 100.092757
1834.5 99.407518
1835 100.103736
1835.5 99.903709
1836 99.959993
1836.5 99.799246
1837 99.928015
1837.5 99.88243
1838 99.846387
1838.5 99.891299
1839 99.777901
1839.5 100.173151
1840 99.769115
1840.5 99.981159
1841 99.691677
1841.5 99.92215
1842 99.606383
1842.5 99.52845
1843 99.838996
1843.5 100.0543
1844 99.910337
1844.5 99.72735
1845 100.019276
1845.5 99.985057
1846 99.786246
1846.5 99.521381
1847 100.057995
1847.5 99.8923
1848 99.958235
1848.5 99.472386
1849 99.774075
1849.5 100.084972
1850 99.789613
1850.5 100.247025
1851 99.748969
1851.5 100.041223
1852 99.628681
1852.5 99.823743
1853 99.832767
1853.5 99.818456
1854 100.123715
1854.5 99.709898
1855 99.974865
1855.5 99.630809
1856 100.182569
1856.5 99.71261
1857 99.909252
1857.5 99.776614
1858 99.797416
1858.5 99.985474
1859 99.981606
1859.5 100.017118
1860 99.71875
1860.5 99.932688
1861 99.75127
1861.5 100.013769
1862 99.836075
1862.5 100.048256
1863 99.706715
1863.5 99.969614
1864 99.956208
1864.5 99.74485
1865 99.989051
1865.5 99.715489
1866 99.991417
1866.5 99.662131
1867 99.577332
1867.5 99.700856
1868 99.79161
1868.5 99.974841
1869 99.757767
1869.5 99.921089
1870 99.554265
1870.5 99.953395
1871 99.797654
1871.5 99.952263
1872 99.729508
1872.5 100.051987
1873 99.805325
1873.5 99.756473
1874 99.870878
1874.5 100.065899
1875 100.007451
1875.5 99.764848
1876 99.947381
1876.5 99.767309
1877 99.851525
1877.5 99.741715
1878 100.001085
1878.5 99.712086
1879 99.696493
1879.5 99.831206
1880 99.774081
1880.5 99.966842
1881 99.589181
1881.5 99.976695
1882 99.757403
1882.5 99.794835
1883 99.761593
1883.5 99.891037
1884 99.998891
1884.5 99.836457
1885 100.093353
1885.5 99.782509
1886 100.03233
1886.5 99.787706
1887 100.089264
1887.5 99.802583
1888 99.782246
1888.5 99.667567
1889 99.673992
1889.5 100.22428
1890 99.777538
1890.5 99.907225
1891 99.656624
1891.5 99.922198
1892 99.698091
1892.5 99.947178
1893 99.821454
1893.5 99.85069
1894 99.914199
1894.5 99.801332
1895 99.937057
1895.5 99.697196
1896 100.188851
1896.5 99.725425
1897 99.840498
1897.5 99.956095
1898 99.883068
1898.5 99.868751
1899 99.857742
1899.5 99.951118
1900 99.7163
1900.5 99.997896
1901 99.768555
1901.5 99.939668
1902 99.717802
1902.5 99.859655
1903 99.725044
1903.5 99.771881
1904 99.958158
1904.5 99.578744
1905 99.963385
1905.5 99.755275
1906 99.95392
1906.5 99.7944
1907 100.143445
1907.5 99.803632
1908 99.819142
1908.5 99.786633
1909 99.807417
1909.5 99.964625
1910 99.788165
1910.5 99.938035
1911 99.668312
1911.5 100.028503
1912 99.663746
1912.5 99.815059
1913 99.837756
1913.5 99.729943
1914 99.914557
1914.5 99.774307
1915 99.89273
1915.5 99.602473
1916 99.985892
1916.5 99.714458
1917 99.949968
1917.5 99.684918
1918 100.042021
1918.5 99.83024
1919 99.623078
1919.5 99.955678
1920 99.814826
1920.5 100.078404
1921 99.635786
1921.5 100.068259
1922 99.786288
1922.5 99.832553
1923 99.625504
1923.5 99.869126
1924 99.982369
1924.5 99.72471
1925 99.886078
1925.5 99.704713
1926 99.940741
1926.5 99.491996
1927 99.954194
1927.5 99.757308
1928 99.798703
1928.5 99.901253
1929 99.597019
1929.5 99.998087
1930 99.772567
1930.5 100.149035
1931 99.742287
1931.5 100.000346
1932 99.728823
1932.5 100.005555
1933 99.852508
1933.5 99.843001
1934 99.835348
1934.5 99.770439
1935 99.985212
1935.5 99.705613
1936 100.028682
1936.5 99.682158
1937 99.956942
1937.5 99.636155
1938 99.770105
1938.5 99.84473
1939 99.789745
1939.5 99.893439
1940 99.780709
1940.5 100.019372
1941 99.739736
1941.5 100.006378
1942 99.863648
1942.5 99.928737
1943 99.756521
1943.5 99.874306
1944 100.030935
1944.5 99.774987
1945 99.878967
1945.5 99.834055
1946 100.066113
1946.5 99.667925
1947 99.940032
1947.5 99.679178
1948 99.798024
1948.5 99.754924
1949 99.807751
1949.5 99.845719
1950 99.568617
1950.5 99.957156
1951 99.789387
1951.5 99.980801
1952 99.735695
1952.5 99.903488
1953 99.843079
1953.5 99.810183
1954 99.918777
1954.5 99.826181
1955 100.079834
1955.5 99.760979
1956 100.123394
1956.5 99.704987
1957 99.948549
1957.5 99.730647
1958 99.971807
1958.5 99.796653
1959 99.848551
1959.5 99.95777
1960 99.821007
1960.5 99.970782
1961 99.593651
1961.5 99.959332
1962 99.684578
1962.5 99.906701
1963 99.726403
1963.5 99.81817
1964 99.885118
1964.5 99.786824
1965 100.053787
1965.5 99.823391
1966 100.077856
1966.5 99.763066
1967 100.119209
1967.5 99.766219
1968 99.947947
1968.5 99.793595
1969 99.990755
1969.5 99.868304
1970 99.791467
1970.5 99.968898
1971 99.750382
1971.5 99.993253
1972 99.605864
1972.5 99.920946
1973 99.715602
1973.5 99.921709
1974 99.84042
1974.5 99.643564
1975 99.929869
1975.5 99.667287
1976 100.137496
1976.5 99.679828
1977 100.085223
1977.5 99.624515
1978 100.072968
1978.5 99.948031
1979 99.829346
1979.5 99.890095
1980 99.746436
1980.5 100.164485
1981 99.658215
1981.5 100.167274
1982 99.692333
1982.5 99.884963
1983 99.696261
1983.5 99.765879
1984 99.86816
1984.5 99.642891
1985 100.034404
1985.5 99.658382
1986 100.034237
1986.5 99.600661
1987 100.029171
1987.5 99.801648
1988 99.940872
1988.5 99.846381
1989 99.864799
1989.5 100.090122
1990 99.74789
1990.5 100.220358
1991 99.716556
1991.5 100.02768
1992 99.64785
1992.5 100.038183
1993 99.893582
1993.5 99.776614
1994 99.976403
1994.5 99.730784
1995 100.004911
1995.5 99.696195
1996 99.939346
1996.5 99.67761
1997 99.91402
1997.5 99.760962
1998 99.923962
1998.5 100.041032
1999 99.83173
1999.5 100.003493
2000 99.754012
2000.5 100.088966
2001 99.757135
2001.5 100.163984
2002 99.81764
2002.5 99.867481
2003 99.829167
2003.5 99.943399
2004 99.900103
2004.5 99.763596
2005 99.995285
2005.5 99.684912
2006 99.932176
2006.5 99.577761
2007 99.861723
2007.5 99.792266
2008 100.022221
2008.5 99.943447
2009 99.695086
2009.5 99.926031
2010 99.718004
2010.5 100.143707
2011 99.737257
2011.5 100.002241
2012 99.634922
2012.5 100.191939
2013 99.886066
2013.5 99.835414
2014 99.978173
2014.5 99.80166
2015 100.04499
2015.5 99.602932
2016 100.047886
2016.5 99.605745
2017 100.04946
2017.5 99.801511
2018 99.95715
2018.5 99.796414
2019 99.830163
2019.5 100.048339
2020 99.734461
2020.5 100.033069
2021 99.620479
2021.5 100.058699
2022 99.727392
2022.5 100.074279
2023 99.657226
2023.5 99.979651
2024 99.891132
2024.5 99.748445
2025 100.035036
2025.5 99.805021
2026 100.022888
2026.5 99.611819
2027 100.11574
2027.5 99.67429
2028 99.997729
2028.5 99.827194
2029 99.953216
2029.5 99.924439
2030 99.785936
2030.5 99.956715
2031 99.688017
2031.5 99.887854
2032 99.621826
2032.5 100.006759
2033 99.745238
2033.5 99.989307
2034 99.801874
2034.5 99.902523
2035 99.923837
2035.5 99.822074
2036 100.092852
2036.5 99.881625
2037 100.010788
2037.5 99.840987
2038 100.059342
2038.5 99.786913
2039 99.779481
2039.5 99.916935
2040 99.902856
2040.5 99.903119
2041 99.742901
2041.5 99.859852
2042 99.77231
2042.5 99.959612
2043 99.903613
2043.5 99.781138
2044 99.925578
2044.5 99.752629
2045 100.010777
2045.5 99.73824
2046 100.015926
2046.5 99.627268
2047 100.134706
2047.5 99.857426
2048 99.904954
2048.5 99.915701
2049 99.967957
2049.5 100.125766
2050 99.668264
2050.5 99.957561
2051 99.647146
2051.5 99.947017
2052 99.651819
2052.5 100.113916
2053 99.651593
2053.5 99.881423
2054 99.799359
2054.5 99.806482
2055 99.885923
2055.5 99.692601
2056 100.020015
2056.5 99.824011
2057 100.144446
2057.5 99.75332
2058 100.069582
2058.5 99.886715
2059 99.809402
2059.5 99.754012
2060 99.831706
2060.5 99.993396
2061 99.805897
2061.5 100.045264
2062 99.831104
2062.5 99.953353
2063 99.691176
2063.5 99.893254
2064 99.907631
2064.5 99.736404
2065 100.004125
2065.5 99.688315
2066 99.916017
2066.5 99.584168
2067 100.088573
2067.5 99.75512
2068 100.06845
2068.5 99.679619
2069 99.911237
2069.5 99.867511
2070 99.904215
2070.5 100.102544
2071 99.72775
2071.5 99.949098
2072 99.729091
2072.5 99.999988
2073 99.763912
2073.5 99.807769
2074 99.812585
2074.5 99.979836
2075 99.909264
2075.5 99.772549
2076 99.99153
2076.5 99.770814
2077 99.882591
2077.5 99.752694
2078 99.821198
2078.5 99.737883
2079 99.806148
2079.5 100.101042
2080 99.723876
2080.5 99.977499
2081 99.645269
2081.5 100.147069
2082 99.658322
2082.5 100.090575
2083 99.775976
2083.5 99.98821
2084 99.922872
2084.5 99.823594
2085 99.769396
2085.5 99.772155
2086 100.003791
2086.5 99.688822
2087 99.95566
2087.5 99.790758
2088 99.814701
2088.5 99.878335
2089 99.853575
2089.5 99.929351
2090 99.564189
2090.5 99.958873
2091 99.641848
2091.5 100.001407
2092 99.730605
2092.5 100.248611
2093 99.794215
2093.5 99.928355
2094 99.826008
2094.5 99.877059
2095 100.045574
2095.5 99.81581
2096 100.049043
2096.5 99.783087
2097 99.994928
2097.5 99.712884
2098 99.889845
2098.5 99.819785
2099 99.777269
2099.5 99.929446
2100 99.843991
2100.5 99.933255
2101 99.699056
2101.5 100.05827
2102 99.830467
2102.5 99.893928
2103 99.632877
2103.5 99.904931
2104 99.926031
2104.5 99.771297
2105 100.035799
2105.5 99.836153
2106 100.030088
2106.5 99.774522
2107 100.064278
2107.5 99.715197
2108 99.815458
2108.5 99.907941
2109 99.861157
2109.5 99.837673
2110 99.728978
2110.5 100.041103
2111 99.694508
2111.5 100.145829
2112 99.756086
2112.5 99.967265
2113 99.692565
2113.5 99.842209
2114 99.820215
2114.5 99.844027
2115 99.994659
2115.5 99.8052
2116 100.257802
2116.5 99.803007
2117 99.943215
2117.5 99.753034
2118 100.038803
2118.5 99.858779
2119 99.734455
2119.5 99.901378
2120 99.802434
2120.5 99.995154
2121 99.554759
2121.5 100.046051
2122 99.615294
2122.5 99.868357
2123 99.706835
2123.5 99.884933
2124 99.842924
2124.5 99.845606
2125 100.07093
2125.5 99.673152
2126 99.9385
2126.5 99.736434
2127 100.205123
2127.5 99.826604
2128 99.878913
2128.5 99.764591
2129 99.811041
2129.5 99.965221
2130 99.677527
2130.5 99.88544
2131 99.74215
2131.5 100.011718
2132 99.610448
2132.5 99.81246
2133 99.745375
2133.5 99.776077
2134 99.950182
2134.5 99.826956
2135 99.98123
2135.5 99.628007
2136 100.021338
2136.5 99.7859
2137 99.94489
2137.5 99.724931
2138 100.075865
2138.5 99.84656
2139 99.78196
2139.5 99.869555
2140 99.805069
2140.5 100.081038
2141 99.857813
2141.5 100.070429
2142 99.753761
2142.5 99.873483
2143 99.741715
2143.5 99.904543
2144 99.897969
2144.5 99.80334
2145 99.9771
2145.5 99.75909
2146 100.004542
2146.5 99.792224
2147 99.977273
2147.5 99.872947
2148 99.931544
2148.5 99.855161
2149 99.832273
2149.5 100.044024
2150 99.694622
2150.5 100.141692
2151 99.754113
2151.5 100.068045
2152 99.640912
2152.5 99.988002
2153 99.713165
2153.5 99.837482
2154 99.940485
2154.5 99.947065
2155 99.875098
2155.5 99.653739
2156 100.024438
2156.5 99.652058
2157 99.863094
2157.5 99.748558
2158 99.871612
2158.5 99.911809
2159 99.861497
2159.5 99.958551
2160 99.614888
2160.5 100.003898
2161 99.749124
2161.5 100.111234
2162 99.767977
2162.5 99.885011
2163 99.716127
2163.5 99.991339
2164 100.016987
2164.5 99.761921
2165 99.950194
2165.5 99.694324
2166 99.86524
2166.5 99.62135
2167 99.936485
2167.5 99.745548
2168 99.956483
2168.5 99.876362
2169 99.731368
2169.5 99.855042
2170 99.588048
2170.5 100.070429
2171 99.805784
2171.5 100.110841
2172 99.759644
2172.5 100.014102
2173 99.802446
2173.5 99.828988
2174 99.901628
2174.5 99.845743
2175 99.964529
2175.5 99.705559
2176 99.958599
2176.5 99.648482
2177 99.951178
2177.5 99.754906
2178 99.916363
2178.5 99.906516
2179 99.733061
2179.5 99.806279
2180 99.56333
2180.5 99.972624
2181 99.63823
2181.5 100.050139
2182 99.813312
2182.5 99.933904
2183 99.727732
2183.5 99.887484
2184 99.935263
2184.5 99.780774
2185 100.157762
2185.5 99.70997
2186 99.938583
2186.5 99.633461
2187 99.92978
2187.5 99.651212
2188 99.830222
2188.5 99.901742
2189 99.891096
2189.5 99.869984
2190 99.667603
2190.5 100.021911
2191 99.809843
2191.5 99.996287
2192 99.726599
2192.5 99.873567
2193 99.784964
2193.5 99.78978
2194 99.906611
2194.5 99.767512
2195 100.072217
2195.5 99.694085
2196 100.133598
2196.5 99.803191
2197 99.934608
2197.5 99.742305
2198 99.990511
2198.5 99.781644
2199 99.672931
2199.5 99.890786
2200 99.712551
2200.5 99.834675
2201 99.621886
2201.5 99.927467
2202 99.738503
2202.5 99.972928
2203 99.896491
2203.5 99.818683
2204 99.824911
2204.5 99.722457
2205 100.030637
2205.5 99.665266
2206 99.994844
2206.5 99.65623
2207 100.013852
2207.5 99.742025
2208 99.921489
2208.5 99.829221
2209 99.884701
2209.5 99.97313
2210 99.669522
2210.5 99.978316
2211 99.745011
2211.5 99.888104
2212 99.579179
2212.5 99.902916
2213 99.772638
2213.5 99.803156
2214 99.941629
2214.5 99.718148
2215 99.871886
2215.5 99.551654
2216 100.094593
2216.5 99.772698
2217 99.94216
2217.5 99.784315
2218 99.873912
2218.5 99.849427
2219 99.622518
2219.5 99.856198
2220 99.729526
2220.5 100.041628
2221 99.768376
2221.5 99.927849
2222 99.691337
2222.5 99.93338
2223 99.763083
2223.5 99.873513
2224 99.861276
2224.5 99.564373
2225 99.898571
2225.5 99.679679
2226 99.996477
2226.5 99.53115
2227 99.935305
2227.5 99.818134
2228 99.843234
2228.5 99.837911
2229 99.759394
2229.5 99.98045
2230 99.84495
2230.5 100.103295
2231 99.771619
2231.5 99.942124
2232 99.720246
2232.5 99.95411
2233 99.792606
2233.5 99.721861
2234 99.851006
2234.5 99.683493
2235 99.896967
2235.5 99.579227
2236 99.981135
2236.5 99.721283
2237 99.959111
2237.5 99.76117
2238 99.857187
2238.5 99.83809
2239 99.771214
2239.5 99.943793
2240 99.648386
2240.5 99.94514
2241 99.671972
2241.5 100.091219
2242 99.774557
2242.5 99.893838
2243 99.768615
2243.5 99.969596
2244 99.855125
2244.5 99.716169
2245 99.945599
2245.5 99.718541
2246 99.842691
2246.5 99.563605
2247 99.910057
2247.5 99.716985
2248 99.773246
2248.5 99.768436
2249 99.695635
2249.5 99.890095
2250 99.780375
2250.5 100.188017
2251 99.772853
2251.5 99.906379
2252 99.71112
2252.5 100.021553
2253 99.843502
2253.5 99.757522
2254 99.84408
2254.5 99.659938
2255 99.976319
2255.5 99.633354
2256 99.940747
2256.5 99.656314
2257 99.90539
2257.5 99.779272
2258 99.810547
2258.5 99.772012
2259 99.620825
2259.5 99.934548
2260 99.762076
2260.5 99.965078
2261 99.700171
2261.5 100.093734
2262 99.851
2262.5 99.971253
2263 99.86065
2263.5 99.896961
2264 99.888808
2264.5 99.663925
2265 100.053251
2265.5 99.672353
2266 99.930221
2266.5 99.652696
2267 99.941552
2267.5 99.768353
2268 99.819893
2268.5 99.897492
2269 99.825436
2269.5 99.967021
2270 99.671841
2270.5 100.029767
2271 99.70997
2271.5 99.930423
2272 99.651253
2272.5 99.900544
2273 99.850541
2273.5 99.792874
2274 99.893111
2274.5 99.712437
2275 100.19474
2275.5 99.75093
2276 100.023234
2276.5 99.766362
2277 99.887127
2277.5 99.726832
2278 99.871814
2278.5 99.846762
2279 99.688023
2279.5 99.938285
2280 99.688822
2280.5 99.889952
2281 99.651176
2281.5 100.011015
2282 99.818707
2282.5 99.84116
2283 99.93037
2283.5 99.811858
2284 99.892402
2284.5 99.685776
2285 100.157118
2285.5 99.731195
2286 99.932128
2286.5 99.693465
2287 99.994552
2287.5 99.765676
2288 99.711627
2288.5 99.828476
2289 99.771422
2289.5 99.975157
2290 99.709606
2290.5 99.979228
2291 99.61201
2291.5 99.925292
2292 99.733537
2292.5 99.835032
2293 99.775976
2293.5 99.714857
2294 99.916142
2294.5 99.838895
2295 99.877435
2295.5 99.63572
2296 100.121319
2296.5 99.728417
2297 99.945223
2297.5 99.742866
2298 99.952447
2298.5 99.887526
2299 99.816662
2299.5 100.018537
2300 99.691415
2300.5 100.01297
2301 99.734443
2301.5 99.977607
2302 99.685544
2302.5 99.878699
2303 99.768317
2303.5 99.701613
2304 99.848819
2304.5 99.549437
2305 100.021291
2305.5 99.771464
2306 99.996483
2306.5 99.719357
2307 100.109899
2307.5 99.911511
2308 99.757993
2308.5 99.992836
2309 99.776697
2309.5 100.057828
2310 99.761415
2310.5 100.097609
2311 99.641937
2311.5 99.896556
2312 99.817842
2312.5 99.832851
2313 99.705601
2313.5 99.668521
2314 99.885917
2314.5 99.852753
2315 99.976099
2315.5 99.553776
2316 99.922419
2316.5 99.746007
2317 99.824852
2317.5 99.660319
2318 99.727678
2318.5 99.816722
2319 99.730408
2319.5 100.032532
2320 99.706495
2320.5 100.021195
2321 99.617654
2321.5 100.060773
2322 99.713331
2322.5 99.810874
2323 99.75329
2323.5 99.860096
2324 99.978012
2324.5 99.6593
2325 99.920869
2325.5 99.654955
2326 99.935144
2326.5 99.570566
2327 99.758106
2327.5 99.723184
2328 99.816227
2328.5 99.858767
2329 99.784076
2329.5 99.996877
2330 99.567384
2330.5 100.000572
2331 99.778259
2331.5 99.970889
2332 99.746531
2332.5 99.914789
2333 99.806601
2333.5 99.660277
2334 99.870294
2334.5 99.771172
2335 99.968547
2335.5 99.651462
2336 99.839205
2336.5 99.626589
2337 99.90226
2337.5 99.824452
2338 99.813455
2338.5 99.861133
2339 99.681473
2339.5 99.951375
2340 99.705648
2340.5 99.984562
2341 99.599153
2341.5 100.036168
2342 99.839634
2342.5 99.759173
2343 99.660444
2343.5 99.837857
2344 100.021243
2344.5 99.688292
2345 99.974757
2345.5 99.715525
2346 99.869829
2346.5 99.670964
2347 99.97015
2347.5 99.630779
2348 99.800664
2348.5 99.858743
2349 99.719727
2349.5 99.857229
2350 99.514073
2350.5 99.894041
2351 99.705732
2351.5 99.896753
2352 99.664038
2352.5 99.828768
2353 99.799252
2353.5 99.768883
2354 99.912298
2354.5 99.799734
2355 99.982178
2355.5 99.658871
2356 100.100768
2356.5 99.744588
2357 99.867362
2357.5 99.770582
2358 99.922359
2358.5 99.83983
2359 99.727023
2359.5 99.891049
2360 99.580795
2360.5 99.822444
2361 99.535197
2361.5 99.896175
2362 99.696529
2362.5 99.853784
2363 99.782962
2363.5 99.713308
2364 99.930477
2364.5 99.646133
2365 99.925095
2365.5 99.716616
2366 100.085354
2366.5 99.66051
2367 99.963051
2367.5 99.863297
2368 99.805784
2368.5 99.859369
2369 99.766386
2369.5 99.902385
2370 99.602449
2370.5 99.893558
2371 99.56708
2371.5 99.905241
2372 99.630028
2372.5 99.739575
2373 99.740434
2373.5 99.746066
2374 99.890804
2374.5 99.658245
2375 99.903369
2375.5 99.623442
2376 100.067782
2376.5 99.765337
2377 99.953407
2377.5 99.726534
2378 99.904901
2378.5 99.93484
2379 99.745703
2379.5 99.888778
2380 99.713302
2380.5 99.941856
2381 99.610984
2381.5 99.945694
2382 99.633551
2382.5 99.756968
2383 99.799877
2383.5 99.747366
2384 99.825078
2384.5 99.632847
2385 99.911714
2385.5 99.679232
2386 99.890918
2386.5 99.720442
2387 100.051725
2387.5 99.891967
2388 99.912441
2388.5 99.855381
2389 99.73104
2389.5 99.987966
2390 99.669176
2390.5 99.991477
2391 99.713445
2391.5 99.993491
2392 99.617082
2392.5 99.899739
2393 99.793839
2393.5 99.636972
2394 99.915707
2394.5 99.838161
2395 99.93028
2395.5 99.623352
2396 100.073934
2396.5 99.688643
2397 99.92612
2397.5 99.786466
2398 99.914259
2398.5 99.839032
2399 99.771738
2399.5 100.062895
2400 99.75788
2400.5 100.050235
2401 99.688613
2401.5 100.080621
2402 99.730045
2402.5 99.850792
2403 99.808383
2403.5 99.893308
2404 99.905312
2404.5 99.564099
2405 99.819469
2405.5 99.652696
2406 99.846601
2406.5 99.684376
2407 99.847883
2407.5 99.812925
2408 99.849856
2408.5 99.880278
2409 99.733514
2409.5 99.849856
2410 99.592721
2410.5 100.062978
2411 99.733859
2411.5 99.961168
2412 99.662399
2412.5 99.923331
2413 99.871624
2413.5 99.717212
2414 99.835587
2414.5 99.666989
2415 100.002337
2415.5 99.759752
2416 99.979633
2416.5 99.680626
2417 99.883574
2417.5 99.739707
2418 99.727201
2418.5 99.800628
2419 99.676567
2419.5 99.95234
2420 99.766487
2420.5 99.930024
2421 99.554145
2421.5 100.070655
2422 99.747187
2422.5 99.787211
2423 99.790895
2423.5 99.865085
2424 99.902564
2424.5 99.722445
2425 100.038445
2425.5 99.691641
2426 100.041819
2426.5 99.698812
2427 99.883968
2427.5 99.687684
2428 99.752301
2428.5 99.866229
2429 99.807256
2429.5 99.882823
2430 99.671316
2430.5 99.975556
2431 99.700344
2431.5 99.959028
2432 99.652123
2432.5 99.910426
2433 99.862617
2433.5 99.776727
2434 99.899411
2434.5 99.680275
2435 100.082827
2435.5 99.709702
2436 100.123918
2436.5 99.833483
2437 99.9915
2437.5 99.83502
2438 99.925661
2438.5 99.842566
2439 99.622107
2439.5 99.904948
2440 99.638802
2440.5 99.953896
2441 99.614602
2441.5 99.894172
2442 99.719948
2442.5 99.813056
2443 99.852204
2443.5 99.792302
2444 99.869668
2444.5 99.720472
2445 100.077474
2445.5 99.759579
2446 100.032556
2446.5 99.749893
2447 99.927092
2447.5 99.809808
2448 99.779379
2448.5 99.792719
2449 99.839795
2449.5 99.934709
2450 99.628502
2450.5 99.932605
2451 99.635071
2451.5 99.943697
2452 99.713695
2452.5 99.843854
2453 99.872136
2453.5 99.746597
2454 99.993747
2454.5 99.711913
2455 99.97772
2455.5 99.753159
2456 100.420487
2456.5 99.774361
2457 99.895805
2457.5 99.750167
2458 99.9834
2458.5 99.9663
2459 99.678445
2459.5 100.00416
2460 99.751663
2460.5 99.920106
2461 99.604601
2461.5 99.890512
2462 99.690437
2462.5 99.858308
2463 99.890423
2463.5 99.816567
2464 99.862969
2464.5 99.611813
2465 100.038612
2465.5 99.721664
2466 99.964446
2466.5 99.75872
2467 99.99817
2467.5 99.858546
2468 99.871641
2468.5 99.908042
2469 99.6907
2469.5 100.028849
2470 99.683315
2470.5 100.105226
2471 99.615371
2471.5 99.898201
2472 99.7832
2472.5 99.949998
2473 99.86285
2473.5 99.71208
2474 99.907845
2474.5 99.697161
2475 99.917418
2475.5 99.607027
2476 100.004411
2476.5 99.8016
2477 99.882907
2477.5 99.780709
2478 99.753964
2478.5 99.865961
2479 99.737638
2479.5 100.155699
2480 99.766839
2480.5 99.990952
2481 99.6957
2481.5 100.01545
2482 99.663758
2482.5 99.764919
2483 99.875027
2483.5 99.823362
2484 99.929905
2484.5 99.722838
2485 99.980658
2485.5 99.739909
2486 99.97713
2486.5 99.671108
2487 99.798429
2487.5 99.814028
2488 99.749303
2488.5 99.976099
2489 99.837679
2489.5 100.008595
2490 99.730194
2490.5 100.501204
2491 99.617642
2491.5 99.889904
2492 99.77966
2492.5 99.912918
2493 99.989849
2493.5 99.73107
2494 99.894273
2494.5 99.760735
2495 99.961603
2495.5 99.625909
2496 99.851042
2496.5 99.670064
2497 99.868375
2497.5 99.873149
2498 99.743754
2498.5 99.895054
2499 99.625993
2499.5 99.985152
2500 99.731278
2500.5 99.856383
2501 99.734253
2501.5 100.097597
2502 99.870551
2502.5 99.841172
2503 99.825156
2503.5 99.768019
2504 99.997193
2504.5 99.665666
2505 99.992931
2505.5 99.70867
2506 99.874657
2506.5 99.662387
2507 99.916142
2507.5 99.831069
2508 99.761224
2508.5 99.975604
2509 99.652803
2509.5 99.927402
2510 99.644721
2510.5 99.961096
2511 99.722815
2511.5 99.891031
2512 99.786049
2512.5 99.841529
2513 99.915862
2513.5 99.764937
2514 99.974793
2514.5 99.688929
2515 99.98759
2515.5 99.672568
2516 99.957407
2516.5 99.702406
2517 99.763685
2517.5 99.853897
2518 99.745083
2518.5 99.86279
2519 99.60953
2519.5 99.920166
2520 99.687403
2520.5 99.844104
2521 99.713868
2521.5 100.006187
2522 99.846417
2522.5 99.640989
2523 99.909085
2523.5 99.705756
2524 99.972081
2524.5 99.722385
2525 100.090206
2525.5 99.677896
2526 99.916482
2526.5 99.755156
2527 99.957114
2527.5 99.849713
2528 99.65238
2528.5 99.916708
2529 99.555373
2529.5 99.797553
2530 99.565274
2530.5 99.876994
2531 99.550629
2531.5 99.825305
2532 99.809527
2532.5 99.732471
2533 99.849004
2533.5 99.646324
2534 100.153112
2534.5 99.851328
2535 100.053465
2535.5 99.730366
2536 100.044227
2536.5 99.838632
2537 99.842042
2537.5 99.807239
2538 99.829847
2538.5 99.913508
2539 99.665582
2539.5 99.859971
2540 99.623007
2540.5 100.040352
2541 99.710447
2541.5 99.719149
2542 99.72074
2542.5 99.759269
2543 99.852377
2543.5 99.606049
2544 99.82298
2544.5 99.561894
2545 100.092518
2545.5 99.793971
2546 99.907637
2546.5 99.800402
2547 99.871582
2547.5 99.860966
2548 99.639165
2548.5 99.910641
2549 99.690562
2549.5 99.892193
2550 99.689543
2550.5 99.869519
2551 99.703014
2551.5 99.927282
2552 99.936867
2552.5 99.836564
2553 99.907064
2553.5 99.499267
2554 100.081599
2554.5 99.544603
2555 99.893999
2555.5 99.661297
2556 99.895751
2556.5 99.746341
2557 99.740267
2557.5 99.540925
2558 99.55278
2558.5 99.556887
2559 99.44396
2559.5 100.048268
2560 99.335033
2560.5 99.735075
2561 99.376434
2561.5 99.897832
2562 99.9147
2562.5 99.819404
2563 99.911249
2563.5 99.623269
2564 100.045359
2564.5 99.633938
2565 99.832404
2565.5 99.502671
2566 99.84045
2566.5 99.73501
2567 99.632263
2567.5 99.859917
2568 99.753982
2568.5 100.014472
2569 99.548221
2569.5 99.910128
2570 99.547112
2570.5 99.878609
2571 99.694157
2571.5 99.805123
2572 99.669445
2572.5 99.824935
2573 100.039446
2573.5 99.632573
2574 99.900109
2574.5 99.677563
2575 99.819404
2575.5 99.571115
2576 99.791968
2576.5 99.783492
2577 99.960291
2577.5 99.756742
2578 99.620908
2578.5 99.721897
2579 99.466223
2579.5 99.880791
2580 99.479967
2580.5 99.779838
2581 99.836516
2581.5 99.981976
2582 99.816167
2582.5 99.654049
2583 99.823517
2583.5 99.452078
2584 99.859893
2584.5 99.590212
2585 99.76418
2585.5 99.754876
2586 99.919367
2586.5 99.904269
2587 99.87365
2587.5 99.892902
2588 99.501771
2588.5 99.951798
2589 99.538583
2589.5 99.780864
2590 99.472058
2590.5 99.690318
2591 99.71174
2591.5 99.736923
2592 99.784052
2592.5 99.851799
2593 99.748987
2593.5 99.89661
2594 100.113785
2594.5 99.871999
2595 99.960303
2595.5 99.553269
2596 99.588913
2596.5 99.873352
2597 99.664491
2597.5 99.604088
2598 99.768978
2598.5 100.073206
2599 99.507874
2599.5 99.873614
2600 99.445921
2600.5 99.803132
2601 99.606371
2601.5 99.777925
2602 99.751848
2602.5 99.876136
2603 99.615568
2603.5 99.56581
2604 100.093067
2604.5 99.615037
2605 99.99432
2605.5 99.71121
2606 99.748617
2606.5 99.836093
2607 99.715978
2607.5 99.732548
2608 99.806136
2608.5 99.898458
2609 99.817562
2609.5 99.92336
2610 99.635553
2610.5 99.869382
2611 99.742407
2611.5 99.824548
2612 99.749082
2612.5 99.386388
2613 99.736482
2613.5 99.624598
2614 99.99572
2614.5 99.651968
2615 100.009739
2615.5 99.312884
2616 99.823231
2616.5 99.817806
2617 99.789965
2617.5 99.860716
2618 99.828649
2618.5 99.867642
2619 99.699366
2619.5 99.949151
2620 99.518436
2620.5 99.932444
2621 99.603713
2621.5 99.742717
2622 99.632335
2622.5 99.623269
2623 99.851823
2623.5 99.726516
2624 100.190187
2624.5 99.712652
2625 99.78326
2625.5 99.489588
2626 99.831396
2626.5 99.464869
2627 99.643892
2627.5 99.83027
2628 99.589819
2628.5 99.779475
2629 99.498183
2629.5 100.049734
2630 99.769223
2630.5 99.88479
2631 99.671441
2631.5 99.977815
2632 99.787986
2632.5 99.876863
2633 99.968666
2633.5 99.814802
2634 100.243866
2634.5 99.674535
2635 100.08229
2635.5 99.812138
2636 99.967223
2636.5 99.717021
2637 99.905235
2637.5 99.855626
2638 99.578726
2638.5 99.786454
2639 99.524957
2639.5 99.797451
2640 99.617207
2640.5 99.812716
2641 99.633443
2641.5 99.750674
2642 99.782717
2642.5 99.643415
2643 99.888319
2643.5 99.634117
2644 100.124049
2644.5 99.679124
2645 99.952227
2645.5 99.651873
2646 100.115097
2646.5 99.885404
2647 99.764913
2647.5 99.81972
2648 99.57543
2648.5 99.809384
2649 99.6095
2649.5 99.944824
2650 99.522221
2650.5 99.784017
2651 99.594903
2651.5 99.795771
2652 99.635267
2652.5 99.56066
2653 99.8689
2653.5 99.668396
2654 99.890178
2654.5 99.567527
2655 99.883366
2655.5 99.620336
2656 99.816489
2656.5 99.716634
2657 99.659008
2657.5 99.850941
2658 99.645495
2658.5 99.81522
2659 99.624479
2659.5 99.974215
2660 99.497461
2660.5 99.714094
2661 99.317116
2661.5 99.561846
2662 99.267471
2662.5 99.535251
2663 99.737984
2663.5 99.224985
2664 99.822891
2664.5 99.188226
2665 99.754733
2665.5 99.509376
2666 99.721336
2666.5 99.703497
2667 99.620342
2667.5 99.792677
2668 99.49646
2668.5 99.700844
2669 99.451631
2669.5 99.805969
2670 99.424952
2670.5 99.528068
2671 99.528927
2671.5 99.819285
2672 99.672413
2672.5 99.578869
2673 99.709594
2673.5 99.594349
2674 99.776584
2674.5 99.463314
2675 99.884659
2675.5 99.725902
2676 99.996161
2676.5 99.770278
2677 99.775237
2677.5 99.691343
2678 99.508721
2678.5 99.974567
2679 99.486852
2679.5 99.834591
2680 99.511743
2680.5 100.222445
2681 99.759948
2681.5 99.933308
2682 99.936718
2682.5 99.933803
2683 99.994314
2683.5 99.675024
2684 100.002122
2684.5 99.625438
2685 99.867225
2685.5 99.571174
2686 99.865067
2686.5 99.703813
2687 99.950618
2687.5 99.982965
2688 99.628741
2688.5 99.855787
2689 99.489611
2689.5 99.896634
2690 99.577647
2690.5 99.633455
2691 99.617165
2691.5 100.024271
2692 99.829936
2692.5 99.681622
2693 99.777818
2693.5 99.7118
2694 99.886465
2694.5 99.607575
2695 99.754369
2695.5 99.459624
2696 99.59321
2696.5 99.705297
2697 99.553984
2697.5 99.814469
2698 99.709219
2698.5 100.03866
2699 99.749625
2699.5 100.070274
2700 99.704516
2700.5 100.00577
2701 99.805981
2701.5 99.705744
2702 99.709427
2702.5 99.676931
2703 99.863255
2703.5 99.540764
2704 99.971956
2704.5 99.4578
2705 99.684697
2705.5 99.54769
2706 99.873626
2706.5 99.492711
2707 99.647987
2707.5 99.859053
2708 99.538565
2708.5 99.867809
2709 99.555069
2709.5 99.875981
2710 99.597442
2710.5 99.822521
2711 99.604195
2711.5 99.769557
2712 99.689656
2712.5 99.696958
2713 99.946135
2713.5 99.838465
2714 100.050271
2714.5 99.603176
2715 99.87002
2715.5 99.668717
2716 99.691099
2716.5 99.79918
2717 99.859798
2717.5 99.65629
2718 99.524158
2718.5 99.819571
2719 99.333489
2719.5 99.66706
2720 99.595612
2720.5 99.833423
2721 99.759054
2721.5 99.679571
2722 99.760664
2722.5 99.678957
2723 99.881512
2723.5 99.791789
2724 100.162625
2724.5 99.685323
2725 100.18307
2725.5 99.760425
2726 100.209737
2726.5 99.817598
2727 99.657977
2727.5 99.856776
2728 99.806726
2728.5 100.250614
2729 99.693227
2729.5 99.94992
2730 99.618822
2730.5 99.882191
2731 99.60357
2731.5 99.723315
2732 99.716729
2732.5 99.613857
2733 99.739504
2733.5 99.449623
2734 99.585485
2734.5 99.30777
2735 99.492133
2735.5 99.389434
2736 99.660599
2736.5 99.410897
2737 99.690056
2737.5 99.694711
2738 99.757928
2738.5 100.052762
2739 99.685711
2739.5 100.018299
2740 99.626374
2740.5 99.908859
2741 99.83651
2741.5 99.727523
2742 99.728304
2742.5 99.697536
2743 99.854648
2743.5 99.480575
2744 100.045872
2744.5 99.902827
2745 100.127327
2745.5 99.801064
2746 99.956584
2746.5 99.787664
2747 99.741411
2747.5 99.894416
2748 99.653083
2748.5 99.723971
2749 99.380398
2749.5 99.990791
2750 99.35779
2750.5 99.766421
2751 99.593896
2751.5 99.755621
2752 99.773806
2752.5 99.698919
2753 99.844396
2753.5 99.635625
2754 99.876362
2754.5 99.557704
2755 99.701697
2755.5 99.33933
2756 99.451053
2756.5 99.316961
2757 99.411452
2757.5 99.536073
2758 99.458319
2758.5 99.787688
2759 99.543792
2759.5 99.85289
2760 99.624938
2760.5 100.068069
2761 99.90136
2761.5 100.027287
2762 99.989021
2762.5 99.972612
2763 99.926597
2763.5 99.64788
2764 99.779642
2764.5 99.411899
2765 99.777621
2765.5 99.472016
2766 99.760693
2766.5 99.530745
2767 99.742103
2767.5 99.908531
2768 99.804616
2768.5 100.018442
2769 99.674845
2769.5 100.144267
2770 99.910152
2770.5 100.110221
2771 99.767864
2771.5 100.02327
2772 99.853808
2772.5 99.855244
2773 99.92578
2773.5 99.75124
2774 99.975467
2774.5 99.674433
2775 99.969751
2775.5 99.554938
2776 99.759835
2776.5 99.773622
2777 99.910331
2777.5 99.848217
2778 99.676013
2778.5 99.887496
2779 99.605536
2779.5 99.830246
2780 99.445909
2780.5 99.593985
2781 99.479055
2781.5 99.556172
2782 99.610281
2782.5 99.655896
2783 99.866164
2783.5 99.778932
2784 100.186443
2784.5 99.772948
2785 100.033271
2785.5 99.840581
2786 100.037181
2786.5 99.741656
2787 99.781704
2787.5 99.962616
2788 99.903858
2788.5 99.927771
2789 99.581826
2789.5 100.00062
2790 99.611247
2790.5 99.755955
2791 99.632263
2791.5 99.87309
2792 99.929965
2792.5 99.995154
2793 100.215101
2793.5 99.783069
2794 100.091791
2794.5 99.76995
2795 100.047803
2795.5 99.526477
2796 99.460518
2796.5 99.4196
2797 99.603015
2797.5 99.649
2798 99.470592
2798.5 99.522305
2799 99.469751
2799.5 99.926299
2800 99.546552
##END=
