##TITLE= leere Blende_5mm_240124
##JCAMP-DX= 4.24
##DATA TYPE= UV/VIS SPECTRUM
##ORIGIN=  Lambda-SPX/P Scan
##OWNER= Optiplex/OPTIPLEX-755
##DATE= 24.01.2024 17:08:23
##SPECTROMETER/DATA SYSTEM= Lambda 19 UV/Vis/NIR
##SAMPLE DESCRIPTION= 240124
##DELTAX= 0.5
##XUNITS= NANOMETERS
##YUNITS= TRANSMITTANCE
$$COMMENT= RTUNITS 0-1
##XFACTOR= 1.0
##YFACTOR= 0.01
##FIRSTX= 190
##LASTX= 2800
##NPOINTS= 5221
##FIRSTY= 1.007051
##MAXY= 1.009735
##MINY= 0.987666
##XYDATA= (XY..XY)
190 100.705147
190.5 100.973511
191 99.943477
191.5 100.23067
192 99.601346
192.5 98.766553
193 99.943078
193.5 99.495
194 100.180995
194.5 100.455928
195 100.269866
195.5 99.664026
196 100.184464
196.5 100.786746
197 100.118566
197.5 100.553703
198 99.665701
198.5 100.377643
199 100.074148
199.5 100.449741
200 99.695837
200.5 100.162852
201 99.912333
201.5 99.833024
202 100.149
202.5 99.943626
203 99.991727
203.5 99.446952
204 100.274301
204.5 99.737281
205 100.13684
205.5 100.123084
206 100.216353
206.5 100.195599
207 100.097895
207.5 100.282109
208 99.895269
208.5 100.641835
209 99.945438
209.5 100.262058
210 99.892879
210.5 100.241733
211 99.833018
211.5 100.096345
212 99.987525
212.5 99.991518
213 100.141919
213.5 99.658453
214 100.237656
214.5 99.84684
215 100.314415
215.5 99.786514
216 100.202107
216.5 99.934989
217 100.057518
217.5 100.111926
218 99.873829
218.5 100.263083
219 99.874383
219.5 100.22397
220 99.911731
220.5 100.13597
221 99.883121
221.5 100.221145
222 99.970758
222.5 99.939066
223 99.904507
223.5 99.816251
224 100.171554
224.5 99.678063
225 100.109124
225.5 99.728048
226 100.128603
226.5 99.806005
227 100.246739
227.5 99.950212
228 100.049198
228.5 100.149965
229 99.884611
229.5 100.300002
230 99.730253
230.5 100.408626
231 99.774361
231.5 100.313067
232 99.847668
232.5 100.08111
233 99.893343
233.5 99.943119
234 100.133729
234.5 99.887985
235 100.218451
235.5 99.643415
236 100.187719
236.5 99.749345
237 100.18487
237.5 99.833977
238 100.041354
238.5 100.074458
239 99.916983
239.5 100.126338
240 99.881941
240.5 100.288594
241 99.803382
241.5 100.439811
242 99.878454
242.5 100.213706
243 99.913162
243.5 100.100756
244 100.270581
244.5 99.868274
245 100.206208
245.5 99.776351
246 100.171661
246.5 99.690884
247 100.22918
247.5 99.668455
248 100.108743
248.5 99.862361
249 100.057077
249.5 100.039291
250 99.790263
250.5 100.136459
251 99.825865
251.5 100.302112
252 99.823183
252.5 100.334609
253 99.904394
253.5 100.241351
254 100.042868
254.5 99.993497
255 100.174677
255.5 99.904299
256 100.333989
256.5 99.728465
257 100.255716
257.5 99.697709
258 100.222981
258.5 99.758649
259 100.035167
259.5 99.984789
260 99.961191
260.5 100.067675
261 99.761087
261.5 100.227439
262 99.813449
262.5 100.253654
263 99.861377
263.5 100.177264
264 99.998885
264.5 100.085604
265 99.99727
265.5 100.04859
266 100.2985
266.5 99.910557
267 100.286126
267.5 99.680221
268 100.182378
268.5 99.771446
269 100.130796
269.5 99.790221
270 99.968052
270.5 99.985266
271 99.985683
271.5 100.095034
272 99.903822
272.5 100.155461
273 99.836195
273.5 100.123858
274 99.914873
274.5 100.131726
275 99.891454
275.5 99.960411
276 100.192213
276.5 99.889797
277 100.266528
277.5 99.883729
278 100.187898
278.5 99.834728
279 100.082171
279.5 99.753314
280 100.066376
280.5 100.021267
281 99.92761
281.5 100.109458
282 99.803406
282.5 100.041914
283 99.808615
283.5 100.076354
284 99.823666
284.5 100.005519
285 100.001633
285.5 99.939024
286 100.113714
286.5 99.878949
287 100.119925
287.5 99.886823
288 100.205636
288.5 99.857008
289 100.141847
289.5 99.988759
290 100.075066
290.5 99.956411
291 99.887067
291.5 100.157833
292 99.792731
292.5 100.243628
293 99.785393
293.5 100.219846
294 99.71078
294.5 99.994391
295 99.837929
295.5 100.026619
296 100.008214
296.5 99.890572
297 100.072765
297.5 99.850827
298 100.265741
298.5 99.798393
299 100.160873
299.5 99.789345
300 100.133014
300.5 99.89832
301 100.182831
301.5 99.974918
302 99.880826
302.5 100.180292
303 99.748182
303.5 100.262284
304 99.715376
304.5 100.221252
305 99.769688
305.5 100.070214
306 99.916536
306.5 99.912006
307 100.020444
307.5 99.762762
308 100.181174
308.5 99.601454
309 100.17097
309.5 99.7302
310 100.214255
310.5 99.896187
311 100.263262
311.5 99.930274
312 100.014532
312.5 100.203037
313 99.85559
313.5 100.309134
314 99.823481
314.5 100.36422
315 99.886405
315.5 100.285542
316 99.824381
316.5 100.113356
317 99.855381
317.5 99.934393
318 100.029445
318.5 99.922132
319 100.244474
319.5 100.167954
320 100.022447
320.5 100.004637
321 99.951816
321.5 99.987298
322 100.115311
322.5 99.830997
323 100.183856
323.5 99.979901
324 100.162864
324.5 100.097346
325 100.014436
325.5 100.054383
326 99.964273
326.5 100.071645
327 99.866176
327.5 99.904472
328 99.991721
328.5 100.147891
329 100.007939
329.5 99.991018
330 99.973941
330.5 99.758333
331 100.005007
331.5 99.889284
332 100.044262
332.5 99.935967
333 100.09172
333.5 100.088072
334 99.933457
334.5 100.101161
335 100.039649
335.5 100.089264
336 100.058329
336.5 99.959946
337 99.936718
337.5 100.061977
338 99.881291
338.5 100.068045
339 99.995464
339.5 100.017893
340 99.961168
340.5 99.808615
341 100.086141
341.5 99.93993
342 100.039291
342.5 99.918574
343 99.867237
343.5 99.948996
344 100.039506
344.5 100.021899
345 100.152302
345.5 99.969292
346 100.031877
346.5 100.137889
347 99.977475
347.5 99.954182
348 99.858761
348.5 100.015259
349 100.08558
349.5 99.938643
350 100.01508
350.5 100.00627
351 100.117934
351.5 99.872059
352 100.09315
352.5 99.910462
353 99.959517
353.5 99.924809
354 100.000024
354.5 99.958587
355 99.980909
355.5 99.997157
356 100.06094
356.5 100.07596
357 99.923098
357.5 100.147426
358 100.001299
358.5 100.015545
359 99.938029
359.5 100.122213
360 100.001121
360.5 99.987108
361 100.035858
361.5 100.073206
362 100.043535
362.5 99.950331
363 99.991763
363.5 100.034738
364 100.126827
364.5 100.026059
365 99.96289
365.5 100.051844
366 100.019646
366.5 100.067818
367 99.936086
367.5 100.149333
368 99.90617
368.5 100.061285
369 100.014603
369.5 100.132751
370 99.894589
370.5 100.020182
371 99.994081
371.5 100.078738
372 99.99997
372.5 100.071228
373 99.932522
373.5 99.867743
374 99.944252
374.5 99.661207
375 100.11971
375.5 100.029361
376 99.946916
376.5 100.08049
377 100.038922
377.5 100.242019
378 99.958235
378.5 100.271261
379 99.894053
379.5 100.167906
380 100.096011
380.5 99.910951
381 100.086057
381.5 99.971384
382 100.092936
382.5 99.994862
383 100.005364
383.5 99.954545
384 100.042355
384.5 100.141203
385 100.016654
385.5 99.873549
386 100.057197
386.5 100.042784
387 99.831283
387.5 100.053084
388 100.115371
388.5 99.953908
389 99.960697
389.5 100.035882
390 99.959922
390.5 100.096977
391 100.018477
391.5 99.910408
392 100.076675
392.5 100.094819
393 100.080705
393.5 99.934292
394 99.928319
394.5 99.865514
395 100.003302
395.5 100.148129
396 99.994302
396.5 99.995661
397 100.110316
397.5 100.020647
398 100.128126
398.5 99.98399
399 100.026739
399.5 99.973136
400 99.865854
400.5 99.996507
401 100.011063
401.5 99.915469
402 100.035357
402.5 99.96652
403 100.128484
403.5 100.012147
404 100.020194
404.5 99.978006
405 100.082815
405.5 99.992007
406 99.935675
406.5 100.005519
407 99.905163
407.5 99.877536
408 100.044644
408.5 100.021601
409 100.011873
409.5 99.96146
410 99.950361
410.5 99.895209
411 100.008762
411.5 100.114548
412 100.029826
412.5 99.929011
413 100.196874
413.5 99.977195
414 100.071454
414.5 100.092232
415 100.115478
415.5 100.111485
416 99.952227
416.5 100.105822
417 100.260353
417.5 99.966317
418 99.959725
418.5 100.095344
419 100.082493
419.5 100.056207
420 99.876004
420.5 100.051808
421 100.094748
421.5 99.99764
422 100.076592
422.5 99.922955
423 100.010765
423.5 99.982345
424 100.073791
424.5 100.090206
425 99.968541
425.5 100.135505
426 100.040507
426.5 100.014079
427 99.983364
427.5 100.087059
428 100.0489
428.5 100.135052
429 99.89531
429.5 100.099623
430 100.054133
430.5 99.895793
431 99.945885
431.5 100.019777
432 100.171638
432.5 99.932241
433 99.987346
433.5 100.168192
434 100.005043
434.5 100.030971
435 100.128698
435.5 100.084078
436 100.000703
436.5 99.984914
437 99.876535
437.5 100.000298
438 99.928218
438.5 99.869531
439 100.044525
439.5 99.975395
440 99.927849
440.5 100.072455
441 100.024915
441.5 100.013685
442 100.024343
442.5 100.060499
443 99.911648
443.5 99.938011
444 100.026834
444.5 99.942321
445 100.086951
445.5 99.928516
446 99.950558
446.5 99.982309
447 100.023425
447.5 100.021219
448 99.990982
448.5 100.026298
449 100.196314
449.5 99.982214
450 100.023949
450.5 100.038874
451 99.894249
451.5 100.004697
452 100.024378
452.5 99.940211
453 99.982893
453.5 99.877834
454 100.069547
454.5 99.962735
455 100.06969
455.5 99.998015
456 99.914366
456.5 100.020778
457 99.952769
457.5 100.056243
458 99.907136
458.5 100.164115
459 100.063086
459.5 100.080776
460 99.97431
460.5 99.940765
461 100.105524
461.5 99.898326
462 99.994469
462.5 99.973857
463 100.053954
463.5 100.008714
464 100.060868
464.5 99.961841
465 100.009584
465.5 99.984127
466 100.056028
466.5 99.971557
467 99.996215
467.5 99.986821
468 99.992293
468.5 100.11977
469 99.974817
469.5 100.003493
470 99.917477
470.5 100.082719
471 99.981827
471.5 100.100946
472 99.958164
472.5 99.906594
473 100.018728
473.5 99.964488
474 100.114107
474.5 99.890792
475 100.090611
475.5 100.001228
476 99.981588
476.5 99.942243
477 100.011933
477.5 100.019944
478 100.012386
478.5 100.037861
479 99.9605
479.5 100.015497
480 99.984187
480.5 100.032222
481 99.96348
481.5 100.051141
482 100.028181
482.5 100.122476
483 99.9928
483.5 99.969238
484 100.017428
484.5 99.990577
485 100.033808
485.5 99.94657
486 100.071704
486.5 100.066888
487 100.031555
487.5 99.962032
488 99.970549
488.5 100.032473
489 99.960077
489.5 99.989092
490 99.986184
490.5 99.970269
491 100.032878
491.5 99.995035
492 100.025666
492.5 99.93605
493 99.957281
493.5 100.057936
494 100.03556
494.5 99.878788
495 100.009668
495.5 99.995661
496 99.999601
496.5 99.938941
497 99.954402
497.5 100.045609
498 99.920237
498.5 100.099146
499 100.033367
499.5 100.052011
500 99.932551
500.5 99.97161
501 100.105393
501.5 100.00819
502 99.910319
502.5 99.981105
503 100.002193
503.5 99.966729
504 100.04319
504.5 99.949819
505 100.081933
505.5 99.957937
506 100.059569
506.5 100.068069
507 99.960643
507.5 100.021136
508 99.992031
508.5 100.027418
509 100.05039
509.5 99.97471
510 100.007975
510.5 99.990231
511 99.950975
511.5 99.967295
512 99.992609
512.5 99.98185
513 99.96857
513.5 100.066423
514 100.004184
514.5 100.036323
515 99.961096
515.5 99.96503
516 100.044572
516.5 99.960405
517 99.967343
517.5 100.039232
518 100.096774
518.5 100.032854
519 99.889225
519.5 100.036275
520 99.986196
520.5 100.047386
521 100.131106
521.5 99.981087
522 99.912369
522.5 100.063133
523 100.058079
523.5 100.014663
524 100.004768
524.5 99.940062
525 100.037313
525.5 99.943191
526 99.982905
526.5 99.976939
527 100.0422
527.5 99.992353
528 100.043476
528.5 100.107336
529 100.02656
529.5 100.084674
530 100.0422
530.5 99.966085
531 99.971247
531.5 100.016665
532 99.947017
532.5 99.986488
533 99.909937
533.5 100.055695
534 99.910337
534.5 100.023949
535 100.049412
535.5 100.033641
536 100.04245
536.5 100.032222
537 99.966353
537.5 99.924177
538 100.062895
538.5 99.968255
539 100.055063
539.5 99.975574
540 100.101697
540.5 100.085163
541 100.008011
541.5 100.08961
542 99.979758
542.5 100.104928
543 100.015271
543.5 100.082457
544 99.900109
544.5 100.043106
545 100.101244
545.5 100.102854
546 100.035238
546.5 99.986458
547 100.020051
547.5 100.001967
548 100.087404
548.5 99.992627
549 100.037742
549.5 99.992543
550 100.100946
550.5 99.992418
551 99.989605
551.5 99.976838
552 99.924356
552.5 100.065792
553 99.92097
553.5 100.074935
554 100.081086
554.5 100.061893
555 99.982846
555.5 99.959093
556 99.961638
556.5 99.961847
557 100.006592
557.5 99.974638
558 99.996448
558.5 99.901676
559 99.894381
559.5 100.097167
560 99.963433
560.5 100.046635
561 100.066841
561.5 100.075281
562 100.008965
562.5 100.051272
563 99.94508
563.5 100.050461
564 99.996573
564.5 99.978447
565 99.963689
565.5 100.084484
566 100.006723
566.5 100.003278
567 100.0301
567.5 99.967653
568 100.007761
568.5 100.004148
569 100.062406
569.5 100.030661
570 100.017023
570.5 99.971193
571 100.014138
571.5 99.968725
572 99.992698
572.5 99.976468
573 99.940681
573.5 99.992722
574 99.945879
574.5 100.028455
575 100.06355
575.5 100.004101
576 100.011575
576.5 100.079024
577 100.052226
577.5 99.971104
578 100.040972
578.5 99.963796
579 100.10581
579.5 100.029767
580 100.045812
580.5 100.047159
581 100.024915
581.5 100.070739
582 100.000668
582.5 100.057471
583 99.974811
583.5 100.104022
584 99.98737
584.5 99.961621
585 99.940842
585.5 100.02619
586 100.01353
586.5 99.978673
587 100.022101
587.5 100.010109
588 100.00205
588.5 99.99004
589 100.135374
589.5 100.0139
590 99.994177
590.5 99.974865
591 100.041008
591.5 100.077486
592 100.035965
592.5 100.058162
593 99.958509
593.5 100.010455
594 99.956733
594.5 100.056696
595 99.958384
595.5 100.054383
596 100.039268
596.5 99.973637
597 100.091434
597.5 99.913752
598 100.030243
598.5 100.031292
599 99.993944
599.5 99.978226
600 100.014377
600.5 99.983644
601 100.041592
601.5 99.991608
602 99.95476
602.5 100.034487
603 99.949658
603.5 100.090373
604 100.022328
604.5 100.068355
605 99.881184
605.5 100.008667
606 99.96919
606.5 100.048828
607 99.928159
607.5 100.023544
608 100.017798
608.5 99.962646
609 100.006711
609.5 99.946254
610 99.961823
610.5 99.972248
611 100.031173
611.5 100.044167
612 100.09495
612.5 100.020528
613 99.995434
613.5 100.040746
614 99.958348
614.5 100.094473
615 100.040269
615.5 100.012875
616 99.977905
616.5 99.975628
617 99.972963
617.5 99.978876
618 100.02619
618.5 99.984103
619 100.051618
619.5 99.904907
620 100.075865
620.5 99.95845
621 100.08496
621.5 99.991608
622 100.058842
622.5 99.991286
623 100.028336
623.5 99.984711
624 99.920094
624.5 100.01756
625 99.987036
625.5 100.104499
626 100.087869
626.5 100.088584
627 99.995965
627.5 100.004709
628 100.085366
628.5 99.980342
629 99.948615
629.5 100.049889
630 100.042498
630.5 100.054872
631 100.037146
631.5 100.068665
632 100.044382
632.5 99.954432
633 100.012887
633.5 100.017452
634 99.982423
634.5 100.027442
635 99.933213
635.5 100.037622
636 99.975985
636.5 99.999303
637 100.035369
637.5 100.04698
638 100.008965
638.5 100.007749
639 100.004625
639.5 99.960864
640 99.984854
640.5 100.076365
641 100.030661
641.5 99.820817
642 100.047314
642.5 100.02408
643 99.960232
643.5 99.957258
644 100.043285
644.5 100.019348
645 99.906331
645.5 100.013363
646 100.00931
646.5 100.076199
647 99.865431
647.5 99.925983
648 99.992871
648.5 100.034797
649 99.948502
649.5 99.974942
650 100.09625
650.5 99.939102
651 100.08719
651.5 100.014269
652 100.036812
652.5 99.97099
653 99.987388
653.5 99.932754
654 99.988067
654.5 99.981207
655 99.998885
655.5 100.110698
656 99.945873
656.5 100.067031
657 99.963838
657.5 100.054753
658 99.985784
658.5 100.092721
659 99.994427
659.5 99.994963
660 99.975097
660.5 99.968714
661 99.993616
661.5 99.989688
662 100.038719
662.5 99.990892
663 100.117433
663.5 99.984467
664 100.044191
664.5 99.984342
665 99.996608
665.5 99.986798
666 99.993849
666.5 100.0139
667 99.853683
667.5 100.001955
668 99.962139
668.5 99.988449
669 99.99845
669.5 100.012529
670 100.072622
670.5 100.026655
671 100.042164
671.5 99.964559
672 100.078082
672.5 100.023985
673 100.063825
673.5 99.969149
674 100.041151
674.5 100.040984
675 100.008368
675.5 100.051785
676 99.95051
676.5 100.041342
677 99.997836
677.5 100.032985
678 100.032449
678.5 100.117683
679 99.978048
679.5 99.998468
680 100.007367
680.5 99.985993
681 99.966514
681.5 100.01303
682 99.991012
682.5 99.952972
683 100.027156
683.5 100.078404
684 99.976003
684.5 99.99581
685 100.048339
685.5 99.870992
686 100.014055
686.5 100.059736
687 99.957359
687.5 100.028169
688 100.046563
688.5 100.034106
689 100.005472
689.5 100.097406
690 100.096214
690.5 99.995893
691 100.104105
691.5 100.009811
692 100.058866
692.5 99.98889
693 99.985796
693.5 100.033998
694 99.903935
694.5 100.064635
695 100.054014
695.5 100.152075
696 99.941862
696.5 99.996048
697 100.106061
697.5 99.896336
698 99.978936
698.5 99.939102
699 100.088513
699.5 99.979419
700 100.068057
700.5 100.011432
701 100.017905
701.5 100.079405
702 99.97074
702.5 100.022089
703 100.051296
703.5 100.086296
704 99.981999
704.5 100.076008
705 100.050867
705.5 100.062907
706 100.0453
706.5 99.971664
707 99.977165
707.5 100.045109
708 100.026727
708.5 99.968475
709 100.014126
709.5 99.951071
710 100.109649
710.5 99.971718
711 99.989349
711.5 99.905545
712 100.029719
712.5 99.937528
713 99.983281
713.5 99.968779
714 99.943787
714.5 100.073004
715 99.872309
715.5 100.066173
716 99.9713
716.5 99.926603
717 99.918371
717.5 99.970096
718 99.905235
718.5 99.87489
719 99.961483
719.5 100.067341
720 100.077546
720.5 99.953216
721 99.988949
721.5 100.033152
722 100.064111
722.5 100.01297
723 99.950594
723.5 99.917245
724 99.97226
724.5 100.043166
725 99.957132
725.5 99.953675
726 99.922168
726.5 99.958938
727 99.962801
727.5 99.991322
728 100.028372
728.5 100.030386
729 99.974245
729.5 99.992394
730 100.041938
730.5 99.988127
731 100.043762
731.5 99.952406
732 100.164211
732.5 100.113869
733 99.916184
733.5 100.033319
734 100.029278
734.5 100.099754
735 99.917227
735.5 99.985856
736 99.995297
736.5 100.037181
737 100.04766
737.5 100.024104
738 99.893993
738.5 100.157654
739 100.05281
739.5 100.044847
740 100.016761
740.5 100.042975
741 100.066197
741.5 100.000334
742 100.120711
742.5 100.089693
743 99.987721
743.5 99.982589
744 99.911439
744.5 100.046718
745 99.885291
745.5 100.137186
746 100.081587
746.5 100.024235
747 99.797916
747.5 100.059259
748 100.040233
748.5 100.046051
749 100.084388
749.5 100.06417
750 100.136411
750.5 99.962765
751 100.023508
751.5 99.987948
752 99.971759
752.5 99.916971
753 99.996072
753.5 99.990886
754 100.109792
754.5 100.103021
755 99.975336
755.5 100.064921
756 99.998033
756.5 100.027168
757 100.01173
757.5 100.104117
758 100.003493
758.5 100.113964
759 99.927813
759.5 100.04462
760 100.004208
760.5 99.951619
761 100.048816
761.5 99.930763
762 100.042796
762.5 100.04952
763 100.00546
763.5 99.986708
764 100.114143
764.5 100.105035
765 100.004399
765.5 100.004327
766 100.095868
766.5 100.007403
767 99.99097
767.5 100.08955
768 100.078034
768.5 99.890214
769 100.073242
769.5 100.06144
770 99.965423
770.5 99.996489
771 100.056064
771.5 100.011086
772 99.972874
772.5 99.90055
773 100.020313
773.5 99.91163
774 99.992138
774.5 99.939191
775 100.005352
775.5 100.084722
776 99.966276
776.5 99.929714
777 100.003791
777.5 100.009537
778 100.076187
778.5 100.123644
779 99.972594
779.5 100.142145
780 99.997002
780.5 100.010896
781 100.053728
781.5 100.115812
782 99.942148
782.5 99.995017
783 100.031626
783.5 99.998266
784 100.090492
784.5 99.955654
785 100.144994
785.5 100.095963
786 100.239503
786.5 100.043678
787 99.84681
787.5 100.102282
788 99.974555
788.5 99.942309
789 99.887377
789.5 100.036931
790 100.100946
790.5 99.960196
791 100.119293
791.5 100.063717
792 99.90086
792.5 99.885082
793 100.089216
793.5 100.003457
794 99.990118
794.5 99.85351
795 100.096035
795.5 100.168824
796 100.144613
796.5 99.902004
797 99.882543
797.5 100.033987
798 100.118911
798.5 100.018024
799 100.100708
799.5 100.131464
800 100.068855
800.5 100.274682
801 100.041342
801.5 100.154078
802 100.002003
802.5 100.117624
803 100.111222
803.5 99.937564
804 99.912816
804.5 100.209892
805 100.053108
805.5 100.107944
806 100.147021
806.5 100.048637
807 99.9484
807.5 100.102949
808 100.179291
808.5 99.983144
809 99.915069
809.5 100.011623
810 99.913651
810.5 100.125813
811 100.019574
811.5 99.888247
812 100.049329
812.5 100.052226
813 99.95932
813.5 99.875885
814 100.095367
814.5 99.907577
815 100.029695
815.5 100.215006
816 100.038421
816.5 100.03047
817 100.111771
817.5 100.013554
818 99.910903
818.5 99.890888
819 100.02166
819.5 99.926579
820 100.06305
820.5 100.205088
821 100.109077
821.5 100.131631
822 100.224602
822.5 99.981225
823 99.966347
823.5 99.892777
824 99.903965
824.5 100.050533
825 99.929029
825.5 100.167418
826 99.99314
826.5 100.183201
827 100.173283
827.5 100.068867
828 100.032151
828.5 100.123334
829 100.025785
829.5 100.012422
830 100.137269
830.5 100.211406
831 100.063229
831.5 100.206935
832 100.037885
832.5 100.014675
833 99.935448
833.5 99.940473
834 99.946052
834.5 100.278318
835 100.101006
835.5 99.985069
836 100.066435
836.5 100.171828
837 99.855214
837.5 100.257432
838 100.2617
838.5 100.047672
839 100.26437
839.5 100.119805
840 99.944484
840.5 100.110829
841 100.099385
841.5 99.98222
842 100.090361
842.5 100.175011
843 100.030351
843.5 100.076413
844 100.353384
844.5 100.267315
845 99.930876
845.5 99.907339
846 100.155067
846.5 100.103855
847 100.151312
847.5 100.277245
848 99.977964
848.5 100.096846
849 100.201452
849.5 100.24507
850 100.544071
850.5 99.973279
851 100.195646
851.5 99.810302
852 100.010324
852.5 100.240374
853 99.801004
853.5 99.994886
854 100.074935
854.5 100.317574
855 100.314295
855.5 100.001049
856 100.197887
856.5 99.868602
857 100.422764
857.5 99.80002
858 99.824035
858.5 99.778509
859 100.393057
859.5 100.801921
860 100.156987
860.5 100.030768
861 99.941099
861.5 100.162458
862 99.774528
862.5 100.35286
863 99.78863
863.5 100.285661
864 99.82906
864.5 100.25388
865 100.034952
865.5 100.005305
866 100.019717
866.5 99.954414
867 100.132334
867.5 99.668479
868 100.171101
868.5 99.862701
869 100.172853
869.5 99.909759
870 100.07602
870.5 100.028121
871 100.040472
871.5 100.193667
872 99.920326
872.5 100.197971
873 99.772733
873.5 100.458217
874 99.952662
874.5 100.181031
875 99.891567
875.5 100.268126
876 100.071049
876.5 99.71894
877 100.053227
877.5 99.836791
878 100.162888
878.5 99.656737
879 100.211036
879.5 99.858683
880 100.066757
880.5 99.972075
881 99.979085
881.5 100.11543
882 99.703407
882.5 100.246346
883 99.873209
883.5 100.218451
884 99.769378
884.5 100.360405
885 100.091183
885.5 99.959761
886 99.95147
886.5 100.026631
887 100.227976
887.5 99.729395
888 100.30278
888.5 99.795866
889 100.148261
889.5 99.850178
890 100.170922
890.5 99.978781
891 99.850512
891.5 100.009561
892 99.825525
892.5 100.139344
893 99.812508
893.5 100.252593
894 99.959952
894.5 100.140572
895 99.87995
895.5 100.239277
896 100.069356
896.5 99.888164
897 100.015163
897.5 99.944389
898 100.15614
898.5 99.818325
899 100.286531
899.5 99.899238
900 99.999142
900.5 99.966264
901 100.073743
901.5 99.982917
902 99.886525
902.5 100.133991
903 99.951756
903.5 100.095332
904 99.732059
904.5 100.272393
905 100.000978
905.5 100.053215
906 99.826837
906.5 100.002384
907 100.030291
907.5 99.909216
908 100.294757
908.5 99.914104
909 100.240099
909.5 99.888217
910 100.338483
910.5 99.924588
911 100.081933
911.5 99.990982
912 100.086343
912.5 100.096083
913 99.891031
913.5 100.11493
914 99.815965
914.5 100.085735
915 99.742478
915.5 100.197256
916 99.952096
916.5 99.940598
917 100.01266
917.5 100.011098
918 100.12902
918.5 99.892384
919 100.376117
919.5 99.896735
920 100.254512
920.5 99.849153
921 100.215161
921.5 99.833673
922 99.997616
922.5 100.032389
923 100.029075
923.5 100.046074
924 99.787867
924.5 100.12455
925 99.834877
925.5 100.066304
926 99.838221
926.5 100.205004
927 100.010884
927.5 100.078893
928 100.220633
928.5 99.880511
929 100.179148
929.5 99.819309
930 100.310981
930.5 99.772364
931 100.186145
931.5 99.797976
932 100.177109
932.5 99.989671
933 99.971628
933.5 100.021839
934 99.889934
934.5 100.158012
935 99.652046
935.5 100.079429
936 99.725509
936.5 100.050557
937 99.870592
937.5 99.924111
938 99.997336
938.5 99.810308
939 100.224221
939.5 99.786872
940 100.179005
940.5 99.760234
941 100.333917
941.5 99.918586
942 100.169039
942.5 99.94148
943 100.107253
943.5 100.142682
944 99.8335
944.5 100.049496
945 99.793828
945.5 100.206113
946 99.687821
946.5 100.131798
947 99.872094
947.5 99.943
948 99.974763
948.5 99.91017
949 100.07509
949.5 99.799883
950 100.253153
950.5 99.797469
951 100.218356
951.5 99.807674
952 100.270855
952.5 100.024223
953 100.028741
953.5 99.946594
954 99.919832
954.5 100.306356
955 99.791813
955.5 100.30694
956 99.905294
956.5 100.194383
957 99.89388
957.5 100.171864
958 99.824923
958.5 99.860239
959 100.168121
959.5 99.862862
960 100.142515
960.5 99.727166
961 100.183272
961.5 99.83725
962 100.224304
962.5 99.887127
963 100.029123
963.5 100.05635
964 99.969667
964.5 100.16104
965 99.834204
965.5 100.402546
966 99.830931
966.5 100.381422
967 99.844086
967.5 100.190175
968 99.997157
968.5 100.00782
969 100.028062
969.5 99.807364
970 100.126851
970.5 99.836063
971 100.113297
971.5 99.840778
972 100.192511
972.5 99.931461
973 100.047684
973.5 99.905235
974 99.873245
974.5 100.134444
975 99.819511
975.5 100.250852
976 99.931645
976.5 100.192785
977 99.901551
977.5 100.262356
978 99.851602
978.5 100.004697
979 99.949557
979.5 100.093138
980 100.114799
980.5 99.807006
981 100.082922
981.5 99.787724
982 100.145769
982.5 99.776125
983 100.06659
983.5 99.931318
984 100.073159
984.5 100.111425
985 99.937588
985.5 100.129712
986 99.821663
986.5 100.396073
987 99.9354
987.5 100.193834
988 99.946702
988.5 100.254846
989 99.913496
989.5 100.058126
990 99.950498
990.5 99.973476
991 100.174713
991.5 99.749494
992 100.129044
992.5 99.855518
993 99.993497
993.5 99.820119
994 100.1176
994.5 99.995399
995 99.91678
995.5 100.208962
996 99.92829
996.5 100.071239
997 99.83092
997.5 100.353658
998 99.908066
998.5 100.261009
999 99.986905
999.5 100.179875
1000 99.98374
1000.5 99.834526
1001 100.070632
1001.5 99.9547
1002 100.164497
1002.5 99.87064
1003 100.16582
1003.5 99.841034
1004 100.031161
1004.5 99.982101
1005 99.900335
1005.5 99.931693
1006 99.917209
1006.5 100.231361
1007 99.909955
1007.5 100.182128
1008 99.835306
1008.5 100.375414
1009 100.032115
1009.5 100.110292
1010 99.927449
1010.5 100.066817
1011 100.063944
1011.5 99.934286
1012 100.244999
1012.5 99.884409
1013 100.21112
1013.5 99.905878
1014 100.199211
1014.5 99.848896
1015 100.091851
1015.5 99.984336
1016 99.971175
1016.5 100.04741
1017 99.73774
1017.5 100.211656
1018 99.768513
1018.5 100.138831
1019 99.813306
1019.5 100.2913
1020 99.867725
1020.5 100.005269
1021 100.009465
1021.5 99.925905
1022 100.175333
1022.5 99.926853
1023 100.405324
1023.5 99.81854
1024 100.197983
1024.5 99.896002
1025 100.132012
1025.5 99.928325
1026 99.968636
1026.5 100.042117
1027 100.055087
1027.5 100.058734
1028 99.699724
1028.5 100.185132
1029 99.73014
1029.5 100.081909
1030 99.796891
1030.5 100.040054
1031 100.071645
1031.5 100.053632
1032 100.149941
1032.5 99.911982
1033 100.200868
1033.5 99.85289
1034 100.362575
1034.5 99.901175
1035 100.08384
1035.5 100.062025
1036 100.257111
1036.5 100.06268
1037 99.992627
1037.5 100.0646
1038 99.873543
1038.5 100.119758
1039 99.756503
1039.5 100.095963
1040 99.749428
1040.5 100.088215
1041 99.952519
1041.5 100.00962
1042 100.044417
1042.5 99.906665
1043 100.234771
1043.5 99.933028
1044 100.281668
1044.5 99.889219
1045 100.309801
1045.5 99.909616
1046 100.106251
1046.5 99.945736
1047 100.141597
1047.5 100.259614
1048 99.842066
1048.5 100.136518
1049 99.853623
1049.5 100.142539
1050 99.8613
1050.5 100.125504
1051 99.847829
1051.5 100.09836
1052 100.055313
1052.5 99.886686
1053 100.079203
1053.5 99.940783
1054 100.325763
1054.5 99.938989
1055 100.23948
1055.5 99.798423
1056 100.300789
1056.5 100.025356
1057 99.941951
1057.5 100.008142
1058 100.077164
1058.5 100.142944
1059 99.843758
1059.5 100.193143
1060 99.863368
1060.5 100.111532
1061 99.856365
1061.5 100.079179
1062 99.942875
1062.5 99.950284
1063 100.102961
1063.5 99.884385
1064 100.029707
1064.5 99.762803
1065 100.249887
1065.5 99.950212
1066 100.130832
1066.5 99.882233
1067 100.201702
1067.5 99.983305
1068 99.99916
1068.5 100.179386
1069 99.862075
1069.5 100.298071
1070 99.901009
1070.5 100.227296
1071 99.892634
1071.5 100.124323
1072 99.877417
1072.5 100.107729
1073 99.967259
1073.5 99.869299
1074 100.188327
1074.5 99.899238
1075 100.130689
1075.5 99.851751
1076 100.230193
1076.5 99.889416
1077 100.112355
1077.5 99.836582
1078 100.001216
1078.5 100.1068
1079 99.912238
1079.5 100.176799
1080 99.928057
1080.5 100.24482
1081 99.896735
1081.5 100.380671
1082 99.931711
1082.5 100.122166
1083 99.880224
1083.5 100.092459
1084 100.032997
1084.5 99.876624
1085 100.144947
1085.5 99.911278
1086 100.211191
1086.5 99.825299
1087 100.189281
1087.5 99.960852
1088 99.988103
1088.5 100.034094
1089 99.9493
1089.5 100.033295
1090 99.851096
1090.5 100.428021
1091 99.816674
1091.5 100.177062
1092 99.959296
1092.5 100.281656
1093 99.956012
1093.5 100.110376
1094 99.985963
1094.5 99.975199
1095 100.127101
1095.5 99.8272
1096 100.108695
1096.5 99.853009
1097 100.127602
1097.5 99.837416
1098 100.029552
1098.5 99.88119
1099 99.923003
1099.5 100.114357
1100 99.87188
1100.5 100.101209
1101 99.892509
1101.5 100.440919
1102 99.892199
1102.5 100.213504
1103 99.951005
1103.5 100.219619
1104 100.00242
1104.5 100.009727
1105 100.085354
1105.5 99.958587
1106 100.136244
1106.5 99.820054
1107 100.126326
1107.5 99.772054
1108 100.048006
1108.5 99.873012
1109 100.054252
1109.5 99.937141
1110 99.88119
1110.5 100.250721
1111 99.767017
1111.5 100.165117
1112 99.902451
1112.5 100.309491
1113 100.019145
1113.5 100.193238
1114 99.94812
1114.5 100.075316
1115 100.122225
1115.5 99.859625
1116 100.087738
1116.5 99.921745
1117 100.166059
1117.5 99.751222
1118 100.245678
1118.5 99.754643
1119 100.083005
1119.5 99.953264
1120 100.000095
1120.5 100.08589
1121 99.79772
1121.5 100.115407
1122 99.836361
1122.5 100.212717
1123 99.784827
1123.5 100.266564
1124 99.912238
1124.5 99.970371
1125 100.054467
1125.5 100.059199
1126 100.187886
1126.5 99.82664
1127 100.242281
1127.5 99.815005
1128 100.223315
1128.5 99.851257
1129 100.132132
1129.5 100.0157
1130 99.967164
1130.5 100.039554
1131 100.045156
1131.5 100.113416
1132 99.713337
1132.5 100.239909
1133 99.923187
1133.5 100.049663
1134 99.927795
1134.5 100.221968
1135 100.045598
1135.5 100.129557
1136 100.110936
1136.5 99.929786
1137 100.119078
1137.5 99.756676
1138 100.28733
1138.5 99.8321
1139 100.189006
1139.5 99.904156
1140 100.24327
1140.5 99.96717
1141 99.893314
1141.5 100.042772
1142 99.940014
1142.5 100.136971
1143 99.676251
1143.5 100.084865
1144 99.721801
1144.5 100.145435
1145 99.887937
1145.5 100.073051
1146 100.10407
1146.5 99.846542
1147 100.238907
1147.5 99.855417
1148 100.240386
1148.5 99.856734
1149 100.35547
1149.5 99.862957
1150 100.220084
1150.5 100.014293
1151 100.12182
1151.5 100.043476
1152 99.971563
1152.5 100.086927
1153 99.979043
1153.5 100.170922
1154 99.784064
1154.5 100.178587
1155 99.897528
1155.5 100.005698
1156 99.965197
1156.5 99.935335
1157 100.034106
1157.5 99.941301
1158 100.325382
1158.5 99.875998
1159 100.195074
1159.5 99.852139
1160 100.36267
1160.5 100.053775
1161 100.061297
1161.5 99.997067
1162 100.119328
1162.5 100.239217
1163 99.830061
1163.5 100.186872
1164 99.840266
1164.5 100.209546
1165 99.808466
1165.5 100.083971
1166 99.8285
1166.5 99.950773
1167 100.027406
1167.5 99.907237
1168 99.999666
1168.5 99.746287
1169 100.332582
1169.5 99.935591
1170 100.111675
1170.5 99.848491
1171 100.169313
1171.5 100.02594
1172 100.052285
1172.5 99.979442
1173 99.924213
1173.5 100.278068
1174 99.783605
1174.5 100.229418
1175 99.888825
1175.5 100.101674
1176 99.79915
1176.5 100.103807
1177 99.932253
1177.5 99.868762
1178 100.146258
1178.5 99.911767
1179 100.104594
1179.5 99.764866
1180 100.173986
1180.5 99.878258
1181 100.102937
1181.5 99.915516
1182 100.145841
1182.5 100.13814
1183 99.827045
1183.5 100.13026
1184 99.923682
1184.5 100.292134
1185 99.876046
1185.5 100.243926
1186 99.807352
1186.5 100.047994
1187 99.970025
1187.5 100.183141
1188 99.939072
1188.5 99.917352
1189 100.18028
1189.5 100.014591
1190 100.153804
1190.5 100.403988
1191 99.870902
1191.5 100.137281
1192 100.005829
1192.5 100.216234
1193 100.133646
1193.5 99.893862
1194 100.080788
1194.5 99.894464
1195 100.181556
1195.5 99.757165
1196 100.155008
1196.5 99.767482
1197 100.084901
1197.5 100.042868
1198 99.872887
1198.5 100.035393
1199 99.828553
1199.5 100.201523
1200 99.796098
1200.5 100.326622
1201 99.921304
1201.5 100.427186
1202 100.004292
1202.5 100.090849
1203 99.998069
1203.5 100.10128
1204 100.17221
1204.5 99.785167
1205 100.143158
1205.5 99.770772
1206 100.222874
1206.5 99.807918
1207 100.135362
1207.5 99.867892
1208 100.011456
1208.5 99.957603
1209 99.946642
1209.5 100.016797
1210 99.752718
1210.5 100.383151
1211 99.917358
1211.5 100.183511
1212 99.890888
1212.5 100.168717
1213 100.085461
1213.5 100.042987
1214 99.995977
1214.5 99.959624
1215 100.3317
1215.5 99.830854
1216 100.282168
1216.5 99.877512
1217 100.122869
1217.5 99.786574
1218 100.131309
1218.5 99.861974
1219 99.901444
1219.5 100.152683
1220 99.935901
1220.5 100.070155
1221 99.85891
1221.5 100.2437
1222 99.873239
1222.5 100.189686
1223 99.847054
1223.5 100.051796
1224 100.032604
1224.5 99.942917
1225 100.116837
1225.5 99.953562
1226 100.386178
1226.5 99.947715
1227 100.276804
1227.5 99.80191
1228 100.197983
1228.5 100.051057
1229 100.083876
1229.5 100.062597
1230 99.904686
1230.5 100.148785
1231 99.945951
1231.5 100.157952
1232 99.645317
1232.5 100.210786
1233 99.909735
1233.5 100.043678
1234 100.007725
1234.5 100.011599
1235 100.09495
1235.5 99.912763
1236 100.195193
1236.5 99.83061
1237 100.365806
1237.5 99.837112
1238 100.262046
1238.5 99.892092
1239 100.011575
1239.5 99.925345
1240 100.168061
1240.5 100.143182
1241 99.763733
1241.5 100.102568
1242 99.765301
1242.5 100.119627
1243 99.703431
1243.5 100.143504
1244 99.939501
1244.5 100.112391
1245 100.084519
1245.5 99.92246
1246 100.113451
1246.5 99.848402
1247 100.306976
1247.5 99.884105
1248 100.334322
1248.5 99.769735
1249 100.334549
1249.5 100.100303
1250 99.984318
1250.5 100.156379
1251 100.003231
1251.5 100.124657
1252 99.798793
1252.5 100.071752
1253 99.801028
1253.5 100.156283
1254 99.804556
1254.5 99.954563
1255 100.066328
1255.5 99.923545
1256 100.063145
1256.5 99.855739
1257 100.15316
1257.5 99.781728
1258 100.298131
1258.5 99.862713
1259 100.216186
1259.5 99.938077
1260 100.32047
1260.5 100.0893
1261 99.92826
1261.5 99.985206
1262 99.931431
1262.5 100.215101
1263 99.886245
1263.5 100.109363
1264 99.775428
1264.5 100.119185
1265 99.864119
1265.5 100.028217
1266 100.014341
1266.5 99.776727
1267 100.116336
1267.5 99.948639
1268 100.174284
1268.5 99.815482
1269 100.329673
1269.5 99.977642
1270 100.134706
1270.5 99.976844
1271 100.086272
1271.5 100.139582
1272 99.938607
1272.5 100.144362
1273 99.888164
1273.5 100.27293
1274 99.801171
1274.5 100.206792
1275 99.87312
1275.5 99.921268
1276 99.938786
1276.5 99.983782
1277 100.003445
1277.5 99.835175
1278 100.262785
1278.5 99.892014
1279 100.159347
1279.5 99.8878
1280 100.227165
1280.5 99.880189
1281 100.006926
1281.5 100.049877
1282 99.836057
1282.5 100.202322
1283 99.861085
1283.5 100.245929
1284 99.888235
1284.5 100.157487
1285 99.768478
1285.5 100.153005
1286 99.862629
1286.5 99.935317
1287 100.070381
1287.5 100.151336
1288 100.107503
1288.5 99.837518
1289 100.299084
1289.5 99.803466
1290 100.151718
1290.5 99.902242
1291 100.039184
1291.5 99.99001
1292 100.011826
1292.5 100.094545
1293 99.89441
1293.5 100.108802
1294 99.753147
1294.5 100.303018
1295 99.857444
1295.5 100.115275
1296 99.871796
1296.5 100.175047
1297 99.999475
1297.5 99.965596
1298 100.075018
1298.5 99.920392
1299 100.156939
1299.5 99.674547
1300 100.123894
1300.5 99.815226
1301 100.111639
1301.5 99.961621
1302 99.889392
1302.5 100.041604
1303 99.892527
1303.5 100.211775
1304 99.817669
1304.5 100.238597
1305 99.780422
1305.5 100.244486
1306 99.953032
1306.5 100.044465
1307 100.007176
1307.5 100.093734
1308 100.107098
1308.5 99.81913
1309 100.089371
1309.5 99.828088
1310 100.123274
1310.5 99.715352
1311 100.104868
1311.5 99.895
1312 100.074959
1312.5 100.072539
1313 99.831891
1313.5 100.110579
1314 99.747008
1314.5 100.283802
1315 99.908781
1315.5 100.289965
1316 99.844313
1316.5 100.323713
1317 100.09414
1317.5 100.024676
1318 100.09619
1318.5 99.909919
1319 100.088954
1319.5 99.84709
1320 100.118423
1320.5 99.738747
1321 100.146723
1321.5 99.796784
1322 100.010383
1322.5 99.960673
1323 99.90719
1323.5 100.077307
1324 99.88746
1324.5 100.156021
1325 99.675941
1325.5 100.344384
1326 99.949288
1326.5 100.093627
1327 99.939793
1327.5 100.130141
1328 99.999589
1328.5 99.977827
1329 100.174117
1329.5 99.788147
1330 100.204527
1330.5 99.827147
1331 100.240612
1331.5 99.941605
1332 100.110245
1332.5 99.8052
1333 99.972641
1333.5 100.042224
1334 99.769014
1334.5 100.22682
1335 99.836653
1335.5 100.097752
1336 99.838316
1336.5 100.299394
1337 99.938256
1337.5 100.166094
1338 99.977744
1338.5 100.092053
1339 100.17724
1339.5 99.908876
1340 100.302947
1340.5 99.943542
1341 100.25841
1341.5 99.794841
1342 100.234413
1342.5 99.887919
1343 99.954665
1343.5 99.995804
1344 100.05368
1344.5 100.068927
1345 99.749136
1345.5 100.270498
1346 99.787951
1346.5 100.290215
1347 99.788642
1347.5 100.131845
1348 99.982166
1348.5 100.005174
1349 100.129032
1349.5 100.153792
1350 100.182271
1350.5 99.942362
1351 100.469625
1351.5 99.906814
1352 100.051165
1352.5 99.860781
1353 100.273955
1353.5 99.814004
1354 100.21385
1354.5 100.055707
1355 99.949294
1355.5 100.155592
1356 99.830109
1356.5 100.15223
1357 100.046062
1357.5 100.062072
1358 99.846029
1358.5 99.995923
1359 99.977291
1359.5 100.003648
1360 100.241482
1360.5 99.892932
1361 99.928588
1361.5 99.909127
1362 100.668764
1362.5 100.136936
1363 99.902922
1363.5 99.756449
1364 100.13299
1364.5 100.000405
1365 100.078619
1365.5 100.260282
1366 99.929726
1366.5 100.097322
1367 99.252492
1367.5 100.402725
1368 99.813497
1368.5 100.341225
1369 99.984312
1369.5 99.824458
1370 99.902707
1370.5 99.866819
1371 100.223196
1371.5 99.908936
1372 100.353622
1372.5 99.80551
1373 100.246084
1373.5 100.035536
1374 100.060034
1374.5 99.9259
1375 100.071788
1375.5 100.247884
1376 99.831724
1376.5 100.149453
1377 99.845415
1377.5 100.139606
1378 99.812824
1378.5 100.381887
1379 100.016546
1379.5 100.156319
1380 100.239575
1380.5 99.860656
1381 100.234413
1381.5 99.747777
1382 100.838709
1382.5 100.038159
1383 100.280309
1383.5 100.021446
1384 100.246537
1384.5 100.043571
1385 100.000322
1385.5 100.083482
1386 100.006604
1386.5 100.331748
1387 99.708283
1387.5 100.579011
1388 99.884611
1388.5 100.424635
1389 99.786061
1389.5 100.139713
1390 99.969512
1390.5 99.88904
1391 100.160837
1391.5 99.713665
1392 100.170314
1392.5 99.988979
1393 100.1858
1393.5 99.94542
1394 100.019491
1394.5 99.929255
1395 100.314581
1395.5 99.971688
1396 99.930525
1396.5 100.071943
1397 100.034499
1397.5 100.168169
1398 99.877244
1398.5 100.166667
1399 99.754399
1399.5 100.139987
1400 99.874353
1400.5 100.082278
1401 99.892402
1401.5 100.198746
1402 99.999732
1402.5 99.933779
1403 100.134611
1403.5 99.87635
1404 100.326705
1404.5 99.61586
1405 100.030208
1405.5 100.079429
1406 99.954969
1406.5 100.2092
1407 99.810982
1407.5 100.340164
1408 99.70836
1408.5 100.127637
1409 99.664426
1409.5 100.111103
1410 99.967235
1410.5 100.071979
1411 100.046492
1411.5 100.075257
1412 99.989396
1412.5 99.77569
1413 100.116003
1413.5 99.848485
1414 100.301063
1414.5 99.803811
1415 100.057924
1415.5 99.954653
1416 100.002491
1416.5 100.03283
1417 99.819958
1417.5 100.040913
1418 99.782223
1418.5 100.477087
1419 99.781615
1419.5 100.236404
1420 99.90328
1420.5 100.22527
1421 99.987727
1421.5 99.991304
1422 99.996394
1422.5 99.937308
1423 100.24513
1423.5 99.807894
1424 100.093997
1424.5 99.832308
1425 100.094068
1425.5 99.82996
1426 100.061047
1426.5 99.861896
1427 99.966615
1427.5 100.196445
1428 99.848658
1428.5 100.155699
1429 99.772787
1429.5 100.310791
1430 99.937433
1430.5 100.192499
1431 99.823046
1431.5 100.245178
1432 100.141156
1432.5 99.995482
1433 100.049984
1433.5 99.878174
1434 100.04288
1434.5 99.777269
1435 100.090849
1435.5 99.743706
1436 100.156975
1436.5 99.847186
1437 99.876636
1437.5 100.015426
1438 99.823338
1438.5 100.124359
1439 99.906605
1439.5 100.103819
1440 99.748957
1440.5 100.320113
1441 99.990243
1441.5 100.001502
1442 99.955153
1442.5 100.206554
1443 100.065255
1443.5 100.022483
1444 100.304461
1444.5 99.897307
1445 100.254714
1445.5 99.91799
1446 100.213802
1446.5 99.99848
1447 100.0211
1447.5 99.97344
1448 100.059092
1448.5 100.063217
1449 99.762923
1449.5 100.25785
1450 99.925274
1450.5 100.131238
1451 99.847037
1451.5 100.176644
1452 99.995953
1452.5 100.123346
1453 100.093222
1453.5 99.920636
1454 100.287473
1454.5 99.958819
1455 100.336826
1455.5 99.783826
1456 100.123799
1456.5 99.896955
1457 100.164497
1457.5 100.018954
1458 99.907792
1458.5 100.030482
1459 99.99491
1459.5 100.117397
1460 99.773878
1460.5 100.149858
1461 99.821025
1461.5 100.105548
1462 99.875146
1462.5 100.111568
1463 100.014806
1463.5 99.946058
1464 100.125861
1464.5 99.882448
1465 100.194812
1465.5 99.868959
1466 100.348246
1466.5 99.866545
1467 100.168228
1467.5 100.006545
1468 100.238788
1468.5 99.998367
1469 99.860829
1469.5 100.144815
1470 99.822372
1470.5 100.108922
1471 99.777782
1471.5 100.121605
1472 99.820673
1472.5 100.136209
1473 99.968922
1473.5 99.967831
1474 100.131965
1474.5 99.861544
1475 100.224137
1475.5 99.818188
1476 100.183904
1476.5 99.729192
1477 100.342822
1477.5 99.94477
1478 100.107491
1478.5 99.952328
1479 100.126135
1479.5 100.101817
1480 99.837089
1480.5 100.125325
1481 99.803156
1481.5 100.200832
1482 99.844503
1482.5 100.111282
1483 99.877769
1483.5 100.063145
1484 99.997276
1484.5 99.880803
1485 100.172997
1485.5 99.795854
1486 100.310528
1486.5 99.91293
1487 100.174391
1487.5 99.839646
1488 100.250864
1488.5 99.960339
1489 99.980462
1489.5 100.109971
1490 99.966443
1490.5 100.155807
1491 99.907565
1491.5 100.203872
1492 99.801403
1492.5 100.16861
1493 99.845463
1493.5 100.068605
1494 99.971437
1494.5 99.91914
1495 100.084853
1495.5 99.847627
1496 100.138927
1496.5 99.739754
1497 100.288022
1497.5 99.952739
1498 100.216329
1498.5 99.881679
1499 100.196087
1499.5 100.023639
1500 99.911439
1500.5 100.108659
1501 99.881709
1501.5 100.20026
1502 99.810636
1502.5 100.230944
1503 99.827528
1503.5 100.025129
1504 99.894226
1504.5 100.014579
1505 99.970526
1505.5 99.767947
1506 100.243092
1506.5 99.966753
1507 100.167251
1507.5 99.790293
1508 100.318658
1508.5 99.865246
1509 100.090849
1509.5 99.932641
1510 99.941182
1510.5 100.175226
1511 99.94365
1511.5 100.229168
1512 99.860507
1512.5 100.246501
1513 99.818516
1513.5 100.173485
1514 99.898386
1514.5 99.916744
1515 99.988312
1515.5 100.052822
1516 99.930698
1516.5 99.833947
1517 100.200808
1517.5 99.776876
1518 100.176966
1518.5 99.774343
1519 100.118876
1519.5 99.987072
1520 100.053632
1520.5 100.106919
1521 99.876726
1521.5 100.220549
1522 99.895346
1522.5 100.406075
1523 99.848431
1523.5 100.10556
1524 99.789155
1524.5 100.1683
1525 99.810737
1525.5 99.866855
1526 100.006342
1526.5 99.899191
1527 100.146639
1527.5 99.806482
1528 99.972415
1528.5 99.752843
1529 100.113785
1529.5 99.909097
1530 100.043058
1530.5 100.143039
1531 99.907428
1531.5 100.175989
1532 99.942619
1532.5 100.183237
1533 99.736547
1533.5 100.45439
1534 99.881989
1534.5 100.14292
1535 99.990922
1535.5 100.146508
1536 99.947816
1536.5 99.855703
1537 100.076318
1537.5 99.894065
1538 100.141072
1538.5 99.695939
1539 100.124848
1539.5 99.831975
1540 100.071454
1540.5 99.905223
1541 100.004101
1541.5 100.111997
1542 99.798113
1542.5 100.221646
1543 99.841499
1543.5 100.143015
1544 99.885243
1544.5 100.352383
1545 99.935806
1545.5 100.076187
1546 99.951679
1546.5 99.968708
1547 100.14571
1547.5 99.862355
1548 100.032401
1548.5 99.878651
1549 100.22999
1549.5 99.782395
1550 100.06777
1550.5 99.902141
1551 99.994463
1551.5 100.063443
1552 99.879158
1552.5 100.056863
1553 99.691117
1553.5 100.252819
1554 99.911487
1554.5 100.256848
1555 99.841648
1555.5 100.169384
1556 100.085735
1556.5 100.0844
1557 99.949974
1557.5 100.010419
1558 100.275373
1558.5 99.786305
1559 100.256193
1559.5 99.860233
1560 100.04946
1560.5 99.892497
1561 100.097525
1561.5 99.943221
1562 99.825436
1562.5 100.137341
1563 99.828899
1563.5 100.149095
1564 99.873453
1564.5 100.295019
1565 99.856824
1565.5 100.211
1566 99.885005
1566.5 100.131035
1567 100.069416
1567.5 99.955356
1568 100.228643
1568.5 100.05821
1569 100.190639
1569.5 99.780297
1570 100.330675
1570.5 99.839795
1571 100.015199
1571.5 99.857587
1572 99.988461
1572.5 99.916917
1573 99.824786
1573.5 100.179768
1574 99.828136
1574.5 100.176036
1575 99.726367
1575.5 100.050986
1576 99.893939
1576.5 100.063562
1577 99.961776
1577.5 100.052071
1578 100.236964
1578.5 99.909222
1579 100.299239
1579.5 99.95138
1580 100.172222
1580.5 99.923408
1581 100.265419
1581.5 99.836808
1582 100.000679
1582.5 99.955195
1583 100.040829
1583.5 100.054801
1584 99.763566
1584.5 100.020862
1585 99.708432
1585.5 100.070107
1586 99.707526
1586.5 100.15434
1587 99.894714
1587.5 99.952739
1588 100.087285
1588.5 99.921477
1589 100.193238
1589.5 99.862456
1590 100.324678
1590.5 99.832374
1591 100.148141
1591.5 99.871141
1592 100.172043
1592.5 100.089276
1593 99.973065
1593.5 100.016439
1594 99.97043
1594.5 100.036645
1595 99.667943
1595.5 100.065267
1596 99.740851
1596.5 100.093842
1597 99.895573
1597.5 100.051916
1598 99.95901
1598.5 100.023127
1599 100.183487
1599.5 99.965942
1600 100.118613
1600.5 99.75822
1601 100.330341
1601.5 99.993396
1602 100.181866
1602.5 99.964458
1603 100.200188
1603.5 100.097692
1604 99.930519
1604.5 100.05852
1605 99.822748
1605.5 100.075901
1606 99.84836
1606.5 100.168729
1607 99.83567
1607.5 100.092483
1608 99.929422
1608.5 100.007164
1609 100.029564
1609.5 99.765116
1610 100.169742
1610.5 99.817264
1611 100.167
1611.5 99.782872
1612 100.335908
1612.5 99.948633
1613 100.062418
1613.5 99.967837
1614 100.007164
1614.5 100.143039
1615 99.85885
1615.5 100.157619
1616 99.903661
1616.5 100.246108
1617 99.760836
1617.5 100.173259
1618 99.824303
1618.5 99.958426
1619 100.004423
1619.5 99.930084
1620 99.901783
1620.5 99.789637
1621 100.288296
1621.5 99.920642
1622 100.193787
1622.5 99.80042
1623 100.251603
1623.5 100.026512
1624 100.019991
1624.5 99.976975
1625 99.977446
1625.5 100.170743
1626 99.865794
1626.5 100.34312
1627 99.868071
1627.5 100.130749
1628 99.851352
1628.5 100.059867
1629 99.821663
1629.5 99.934363
1630 99.951684
1630.5 100.032473
1631 100.104833
1631.5 99.722528
1632 100.219584
1632.5 99.912703
1633 100.089359
1633.5 99.907833
1634 100.165176
1634.5 99.90859
1635 99.999791
1635.5 100.191188
1636 99.849051
1636.5 100.327313
1637 99.851382
1637.5 100.393486
1638 99.85404
1638.5 100.121498
1639 99.851716
1639.5 100.138879
1640 99.890214
1640.5 99.904191
1641 100.127089
1641.5 99.997604
1642 100.050414
1642.5 99.615455
1643 100.075734
1643.5 99.842417
1644 100.112152
1644.5 99.880892
1645 100.002253
1645.5 100.179493
1646 99.966961
1646.5 100.284719
1647 99.916214
1647.5 100.120735
1648 99.802536
1648.5 100.391901
1649 99.880958
1649.5 100.052154
1650 99.924147
1650.5 100.088513
1651 100.022376
1651.5 99.844998
1652 100.053692
1652.5 99.848336
1653 100.169122
1653.5 99.695778
1654 100.109518
1654.5 99.887103
1655 100.099695
1655.5 100.078797
1656 99.960977
1656.5 100.035977
1657 99.788231
1657.5 100.266194
1658 99.859548
1658.5 100.102031
1659 99.836683
1659.5 100.24153
1660 99.990475
1660.5 100.020492
1661 100.031018
1661.5 99.941754
1662 100.173008
1662.5 99.826139
1663 100.230682
1663.5 99.856687
1664 100.109446
1664.5 99.76778
1665 100.162876
1665.5 99.936807
1666 99.997663
1666.5 100.105488
1667 99.850088
1667.5 100.128019
1668 99.710089
1668.5 100.204837
1669 99.917454
1669.5 100.122416
1670 99.652332
1670.5 99.928188
1671 99.975014
1671.5 100.022125
1672 100.054169
1672.5 99.688619
1673 100.194311
1673.5 99.842799
1674 100.178897
1674.5 99.818605
1675 100.170028
1675.5 99.972612
1676 100.02017
1676.5 100.063133
1677 99.96056
1677.5 100.221837
1678 99.827629
1678.5 100.301909
1679 99.890649
1679.5 99.986267
1680 99.885541
1680.5 100.158989
1681 99.887407
1681.5 99.915785
1682 100.094867
1682.5 100.01688
1683 100.130618
1683.5 99.749517
1684 100.164306
1684.5 99.854869
1685 100.06907
1685.5 99.822789
1686 100.073957
1686.5 100.028706
1687 99.892145
1687.5 100.207269
1688 99.91774
1688.5 100.174904
1689 99.938196
1689.5 100.383675
1690 99.889725
1690.5 100.039387
1691 99.953628
1691.5 100.156152
1692 100.034773
1692.5 99.948812
1693 100.089991
1693.5 99.89019
1694 100.096512
1694.5 99.764013
1695 100.146091
1695.5 99.771959
1696 100.063169
1696.5 100.04251
1697 99.966753
1697.5 100.031519
1698 99.873781
1698.5 100.230229
1699 99.909258
1699.5 100.262988
1700 99.682069
1700.5 100.291288
1701 99.980223
1701.5 100.055349
1702 99.940538
1702.5 100.128984
1703 100.086391
1703.5 99.921471
1704 100.138628
1704.5 99.785447
1705 100.184894
1705.5 99.807853
1706 100.102448
1706.5 99.959868
1707 100.073719
1707.5 100.032258
1708 99.91349
1708.5 100.064218
1709 99.794084
1709.5 100.338626
1710 99.83561
1710.5 100.093269
1711 99.885029
1711.5 100.250983
1712 99.924403
1712.5 99.942482
1713 99.954689
1713.5 99.935162
1714 100.253046
1714.5 99.812269
1715 100.074065
1715.5 99.810022
1716 100.162959
1716.5 99.91188
1717 100.15887
1717.5 99.964988
1718 99.975377
1718.5 100.1212
1719 99.945772
1719.5 100.13901
1720 99.737763
1720.5 100.173378
1721 99.846822
1721.5 100.15806
1722 99.837816
1722.5 100.136411
1723 100.057602
1723.5 99.894065
1724 100.116718
1724.5 99.901366
1725 100.092542
1725.5 99.882877
1726 100.355291
1726.5 99.847615
1727 100.131166
1727.5 99.828255
1728 100.019288
1728.5 99.982572
1729 99.870521
1729.5 100.129926
1730 99.96441
1730.5 100.068951
1731 99.758732
1731.5 100.242734
1732 99.931121
1732.5 100.041962
1733 99.960333
1733.5 99.986273
1734 99.993837
1734.5 99.914914
1735 100.171566
1735.5 99.768329
1736 100.25121
1736.5 99.8761
1737 100.347543
1737.5 99.915308
1738 100.036263
1738.5 99.937868
1739 100.091934
1739.5 100.062752
1740 99.767208
1740.5 100.089324
1741 99.795985
1741.5 100.174081
1742 99.788278
1742.5 100.124454
1743 99.923885
1743.5 100.017822
1744 100.031984
1744.5 99.901617
1745 100.115132
1745.5 99.864751
1746 100.375044
1746.5 99.955738
1747 100.225174
1747.5 99.862409
1748 100.209808
1748.5 100.014305
1749 99.970961
1749.5 100.035143
1750 100.017571
1750.5 100.132906
1751 99.796277
1751.5 100.174677
1752 99.730575
1752.5 100.108469
1753 99.932224
1753.5 99.957013
1754 99.865508
1754.5 99.916041
1755 100.084496
1755.5 99.837822
1756 100.189912
1756.5 99.728614
1757 100.388861
1757.5 99.942857
1758 100.179493
1758.5 99.921483
1759 100.181484
1759.5 100.027132
1760 99.915922
1760.5 100.058544
1761 99.959171
1761.5 100.163555
1762 99.91101
1762.5 100.076461
1763 99.740088
1763.5 100.074661
1764 99.918532
1764.5 99.942541
1765 100.091565
1765.5 99.897778
1766 100.268912
1766.5 99.974042
1767 100.144565
1767.5 99.636024
1768 100.361335
1768.5 99.9834
1769 100.06088
1769.5 99.923658
1770 100.096262
1770.5 100.086284
1771 99.952471
1771.5 100.217175
1772 99.688733
1772.5 100.142872
1773 99.862403
1773.5 100.162661
1774 99.806184
1774.5 100.041354
1775 100.006366
1775.5 99.929518
1776 100.152862
1776.5 99.689627
1777 100.227022
1777.5 99.961722
1778 100.226212
1778.5 99.813116
1779 100.265384
1779.5 100.001144
1780 100.004435
1780.5 100.03829
1781 99.900228
1781.5 100.211251
1782 99.86915
1782.5 100.322103
1783 99.709374
1783.5 100.142848
1784 99.814075
1784.5 100.099158
1785 99.88966
1785.5 99.949652
1786 100.095212
1786.5 99.970877
1787 100.105429
1787.5 99.645704
1788 100.26511
1788.5 99.780256
1789 100.115657
1789.5 99.83713
1790 100.07565
1790.5 100.07056
1791 100.020301
1791.5 100.256348
1792 99.81848
1792.5 100.296628
1793 99.785066
1793.5 100.368917
1794 99.884915
1794.5 100.098133
1795 99.847251
1795.5 100.193965
1796 100.025821
1796.5 99.904978
1797 100.214148
1797.5 99.85677
1798 100.110412
1798.5 99.812204
1799 100.140965
1799.5 99.704665
1800 100.091612
1800.5 99.955225
1801 99.924415
1801.5 100.063467
1802 99.881542
1802.5 100.271642
1803 99.879122
1803.5 100.393474
1804 99.814218
1804.5 100.333917
1805 99.937224
1805.5 99.934256
1806 100.022364
1806.5 100.033534
1807 100.073409
1807.5 99.8164
1808 100.116694
1808.5 99.851292
1809 100.093305
1809.5 99.70848
1810 100.024199
1810.5 99.970239
1811 99.964333
1811.5 100.009942
1812 99.904126
1812.5 100.20299
1813 99.868011
1813.5 100.282443
1814 99.90713
1814.5 100.098991
1815 100.001121
1815.5 100.331032
1816 99.999464
1816.5 100.074267
1817 100.083315
1817.5 100.030577
1818 100.129676
1818.5 99.803603
1819 100.061023
1819.5 99.693596
1820 100.344837
1820.5 99.805439
1821 99.973196
1821.5 99.940538
1822 99.981523
1822.5 100.074434
1823 99.819827
1823.5 100.202632
1824 99.794251
1824.5 100.388455
1825 99.914414
1825.5 100.409663
1826 100.078666
1826.5 100.331008
1827 100.381494
1827.5 99.928552
1828 100.001848
1828.5 99.854219
1829 100.194681
1829.5 99.860775
1830 100.177348
1830.5 99.935514
1831 100.029314
1831.5 99.976581
1832 99.909312
1832.5 100.027728
1833 99.898219
1833.5 100.146365
1834 99.823213
1834.5 100.033784
1835 99.95299
1835.5 100.434363
1836 99.775124
1836.5 100.106704
1837 99.919659
1837.5 100.014102
1838 99.851185
1838.5 99.867761
1839 100.073934
1839.5 99.829185
1840 100.28193
1840.5 99.783993
1841 100.206256
1841.5 99.838799
1842 100.103414
1842.5 99.646646
1843 99.853355
1843.5 100.151145
1844 99.801177
1844.5 100.191867
1845 99.789399
1845.5 100.034416
1846 100.022233
1846.5 100.065815
1847 99.951673
1847.5 100.21013
1848 99.887425
1848.5 100.204778
1849 100.019658
1849.5 99.92618
1850 100.286078
1850.5 99.81423
1851 100.178826
1851.5 99.837494
1852 100.079179
1852.5 99.797398
1853 99.873084
1853.5 100.230706
1854 99.922675
1854.5 100.171506
1855 99.706733
1855.5 100.251758
1856 99.642736
1856.5 100.07987
1857 99.76539
1857.5 100.103211
1858 99.970281
1858.5 99.833935
1859 100.28733
1859.5 99.911559
1860 100.183904
1860.5 99.724835
1861 100.435615
1861.5 99.73641
1862 100.082207
1862.5 99.927145
1863 100.201905
1863.5 99.968851
1864 99.96354
1864.5 100.070632
1865 100.009549
1865.5 100.170243
1866 99.88904
1866.5 99.842757
1867 100.212014
1867.5 99.953443
1868 100.010622
1868.5 100.148034
1869 100.055754
1869.5 99.848133
1870 100.246966
1870.5 99.923575
1871 100.506818
1871.5 99.935949
1872 100.280976
1872.5 99.64425
1873 100.03804
1873.5 99.715501
1874 100.465667
1874.5 100.234878
1875 99.885184
1875.5 99.983966
1876 99.860817
1876.5 100.178695
1877 99.813807
1877.5 100.075412
1878 99.868506
1878.5 100.021195
1879 100.121737
1879.5 99.961787
1880 99.947804
1880.5 99.770814
1881 100.290859
1881.5 99.891752
1882 100.300646
1882.5 99.954528
1883 99.990577
1883.5 100.095105
1884 100.121784
1884.5 100.127852
1885 100.028908
1885.5 100.156689
1886 99.753428
1886.5 100.246322
1887 99.901837
1887.5 100.23402
1888 99.712789
1888.5 99.936771
1889 99.780005
1889.5 100.150204
1890 100.125968
1890.5 99.868149
1891 100.056517
1891.5 99.716014
1892 100.277889
1892.5 100.002468
1893 100.165677
1893.5 99.855012
1894 100.102794
1894.5 100.130713
1895 99.940747
1895.5 100.190938
1896 99.930567
1896.5 100.159252
1897 100.043631
1897.5 100.312746
1898 99.747783
1898.5 100.00087
1899 100.039661
1899.5 100.042069
1900 100.054097
1900.5 99.779409
1901 100.203562
1901.5 100.001061
1902 100.150788
1902.5 99.719155
1903 100.267434
1903.5 99.998754
1904 100.096655
1904.5 100.05461
1905 100.117767
1905.5 100.000489
1906 99.894142
1906.5 100.376642
1907 100.122511
1907.5 100.200343
1908 99.617052
1908.5 100.146747
1909 99.816096
1909.5 100.007141
1910 99.834579
1910.5 100.060487
1911 100.071192
1911.5 99.740142
1912 100.212693
1912.5 99.860078
1913 99.958277
1913.5 99.713391
1914 100.193274
1914.5 100.078905
1915 100.000012
1915.5 100.089514
1916 99.88957
1916.5 100.207579
1917 99.828571
1917.5 100.375187
1918 99.841082
1918.5 100.306082
1919 99.817502
1919.5 99.944037
1920 99.978656
1920.5 99.866825
1921 100.139952
1921.5 100.001335
1922 100.231099
1922.5 99.54617
1923 100.042093
1923.5 99.750149
1924 100.149286
1924.5 99.937361
1925 100.023627
1925.5 99.972099
1926 99.988025
1926.5 100.271022
1927 99.811071
1927.5 100.191891
1928 99.770826
1928.5 100.419414
1929 99.932992
1929.5 100.052524
1930 99.923772
1930.5 100.2074
1931 100.027204
1931.5 99.882054
1932 100.092351
1932.5 99.880266
1933 100.04133
1933.5 99.776912
1934 100.053716
1934.5 99.791986
1935 100.032771
1935.5 99.980646
1936 100.014412
1936.5 100.045121
1937 99.801332
1937.5 100.168574
1938 99.759609
1938.5 100.208342
1939 99.770707
1939.5 100.426114
1940 99.915171
1940.5 100.026619
1941 99.896729
1941.5 100.035787
1942 100.211096
1942.5 99.846518
1943 100.135148
1943.5 99.842548
1944 100.152516
1944.5 99.877477
1945 100.187552
1945.5 99.948674
1946 99.923354
1946.5 100.05424
1947 99.781215
1947.5 99.92035
1948 99.671644
1948.5 100.306928
1949 99.841064
1949.5 100.112832
1950 99.88907
1950.5 100.250959
1951 100.063443
1951.5 100.095534
1952 100.032902
1952.5 99.927098
1953 100.296938
1953.5 99.814963
1954 100.220025
1954.5 99.840581
1955 100.167429
1955.5 99.828005
1956 100.181806
1956.5 99.921703
1957 99.825788
1957.5 100.126886
1958 99.859315
1958.5 100.073063
1959 99.811006
1959.5 100.275815
1960 99.834991
1960.5 100.066519
1961 99.871415
1961.5 100.116229
1962 100.049233
1962.5 99.872583
1963 100.130069
1963.5 99.869066
1964 100.176406
1964.5 99.865127
1965 100.236094
1965.5 99.938565
1966 100.060523
1966.5 100.066817
1967 100.049579
1967.5 99.864268
1968 99.916619
1968.5 100.136852
1969 100.022316
1969.5 100.045228
1970 99.819231
1970.5 100.16042
1971 99.893099
1971.5 100.055456
1972 99.850541
1972.5 100.032043
1973 100.061202
1973.5 100.019181
1974 100.232422
1974.5 99.789572
1975 100.258076
1975.5 99.8155
1976 100.226331
1976.5 99.805373
1977 100.018358
1977.5 99.926162
1978 100.098693
1978.5 100.091314
1979 99.701256
1979.5 100.147939
1980 99.768239
1980.5 100.23632
1981 99.825877
1981.5 100.150847
1982 99.878961
1982.5 99.96385
1983 100.017452
1983.5 99.968946
1984 100.179076
1984.5 99.717885
1985 100.395548
1985.5 99.813378
1986 100.183225
1986.5 99.850512
1987 100.209987
1987.5 99.877119
1988 99.922866
1988.5 100.047684
1989 99.985564
1989.5 100.148654
1990 99.761802
1990.5 100.140142
1991 99.708152
1991.5 100.098753
1992 99.845052
1992.5 100.055099
1993 100.035298
1993.5 99.819529
1994 100.139201
1994.5 99.888575
1995 100.171912
1995.5 99.785948
1996 100.319421
1996.5 99.816388
1997 100.132966
1997.5 100.035739
1998 100.203574
1998.5 100.131261
1999 99.858546
1999.5 100.093985
2000 99.880749
2000.5 100.20386
2001 99.717826
2001.5 100.183249
2002 99.818355
2002.5 100.030887
2003 99.987906
2003.5 99.951071
2004 99.98129
2004.5 99.78438
2005 100.169241
2005.5 99.785668
2006 100.126731
2006.5 99.806917
2007 100.243723
2007.5 99.936324
2008 100.06423
2008.5 99.895722
2009 99.975193
2009.5 100.126064
2010 99.834108
2010.5 100.255191
2011 99.813324
2011.5 100.167072
2012 99.736619
2012.5 100.218153
2013 99.909198
2013.5 99.94086
2014 99.991947
2014.5 99.964201
2015 99.99305
2015.5 99.713242
2016 100.232279
2016.5 99.846935
2017 100.071931
2017.5 99.822682
2018 100.202441
2018.5 99.991524
2019 99.968266
2019.5 100.006652
2020 99.933916
2020.5 100.251591
2021 99.877679
2021.5 100.267577
2022 99.741399
2022.5 100.057626
2023 99.789584
2023.5 100.148392
2024 99.902278
2024.5 99.872816
2025 100.063741
2025.5 99.960744
2026 100.015926
2026.5 99.701726
2027 100.291121
2027.5 99.789423
2028 100.210845
2028.5 99.852735
2029 100.066507
2029.5 100.148439
2030 99.998522
2030.5 100.125396
2031 99.816501
2031.5 100.157142
2032 99.758679
2032.5 100.310051
2033 99.899226
2033.5 100.033772
2034 99.812275
2034.5 100.158191
2035 99.977106
2035.5 99.864936
2036 100.122428
2036.5 99.908566
2037 100.081563
2037.5 99.733865
2038 100.105417
2038.5 99.790221
2039 100.06125
2039.5 99.983823
2040 100.020802
2040.5 100.134099
2041 99.885136
2041.5 100.216615
2042 99.960756
2042.5 100.168908
2043 99.853247
2043.5 100.298917
2044 99.836963
2044.5 100.028849
2045 100.07987
2045.5 99.926776
2046 100.064206
2046.5 99.796402
2047 100.078571
2047.5 99.785864
2048 100.158346
2048.5 99.80042
2049 99.983335
2049.5 100.012362
2050 99.917442
2050.5 100.138581
2051 99.816
2051.5 100.055563
2052 99.744505
2052.5 100.468457
2053 99.84777
2053.5 100.197661
2054 99.802881
2054.5 100.242841
2055 99.880737
2055.5 99.974191
2056 100.045848
2056.5 99.962676
2057 100.328934
2057.5 99.747932
2058 100.120127
2058.5 99.79344
2059 100.085342
2059.5 99.711001
2060 100.10941
2060.5 99.940568
2061 99.868059
2061.5 100.09886
2062 99.816072
2062.5 100.159347
2063 99.864888
2063.5 100.262928
2064 100.053632
2064.5 100.037467
2065 99.901795
2065.5 100.09346
2066 100.131392
2066.5 99.811673
2067 100.111163
2067.5 99.910212
2068 100.124276
2068.5 99.737084
2069 100.258005
2069.5 99.738705
2070 100.150597
2070.5 99.831331
2071 99.97409
2071.5 99.927741
2072 99.742538
2072.5 100.146616
2073 99.828166
2073.5 100.076187
2074 99.753463
2074.5 100.309324
2075 100.049341
2075.5 100.088513
2076 99.882501
2076.5 100.096881
2077 99.962705
2077.5 99.926829
2078 100.281525
2078.5 99.848092
2079 100.238752
2079.5 99.896425
2080 100.118589
2080.5 99.823934
2081 99.906039
2081.5 100.079262
2082 99.961454
2082.5 100.171447
2083 99.60227
2083.5 100.225675
2084 99.775368
2084.5 100.15347
2085 99.755931
2085.5 100.131142
2086 99.897945
2086.5 100.05914
2087 100.0175
2087.5 100.009584
2088 100.149179
2088.5 99.965119
2089 100.304031
2089.5 99.861562
2090 100.04921
2090.5 99.831074
2091 100.041199
2091.5 99.985832
2092 99.875957
2092.5 100.027931
2093 99.91712
2093.5 100.083888
2094 99.664539
2094.5 100.258708
2095 99.739885
2095.5 100.081503
2096 99.918103
2096.5 100.103295
2097 100.050783
2097.5 100.017095
2098 100.187874
2098.5 99.766648
2099 100.205386
2099.5 99.878591
2100 100.299287
2100.5 99.867141
2101 100.163209
2101.5 99.991417
2102 100.090909
2102.5 100.108969
2103 99.790287
2103.5 100.032043
2104 99.800795
2104.5 100.107813
2105 99.714684
2105.5 100.197291
2106 99.772006
2106.5 100.130415
2107 100.000453
2107.5 100.004506
2108 99.942309
2108.5 99.881411
2109 100.206757
2109.5 99.812329
2110 100.165486
2110.5 99.915338
2111 100.336385
2111.5 100.041568
2112 100.087273
2112.5 99.939781
2113 99.971253
2113.5 100.157046
2114 99.672741
2114.5 100.155282
2115 99.706209
2115.5 100.156629
2116 99.827951
2116.5 100.245082
2117 99.86034
2117.5 99.988276
2118 100.002801
2118.5 99.901688
2119 100.005758
2119.5 99.793285
2120 100.105274
2120.5 99.912566
2121 100.226045
2121.5 99.91504
2122 100.156128
2122.5 100.062513
2123 99.863368
2123.5 100.115418
2124 99.860281
2124.5 100.141704
2125 99.702615
2125.5 100.071204
2126 99.744231
2126.5 100.170803
2127 99.853504
2127.5 100.066519
2128 99.919683
2128.5 99.853086
2129 100.040817
2129.5 99.86217
2130 100.054181
2130.5 99.775314
2131 100.251424
2131.5 99.943173
2132 100.088906
2132.5 99.851531
2133 100.212145
2133.5 100.016224
2134 100.023699
2134.5 100.14627
2135 99.886549
2135.5 100.277829
2136 99.932498
2136.5 100.178564
2137 99.895436
2137.5 100.05399
2138 99.894327
2138.5 99.869025
2139 100.041521
2139.5 99.729329
2140 100.116122
2140.5 99.881631
2141 100.216985
2141.5 99.700743
2142 100.4264
2142.5 99.925554
2143 100.138509
2143.5 99.935943
2144 100.044417
2144.5 100.129449
2145 99.90229
2145.5 100.291026
2146 99.825925
2146.5 100.311089
2147 99.825203
2147.5 100.184524
2148 99.932694
2148.5 100.021577
2149 99.980491
2149.5 100.052166
2150 99.94753
2150.5 99.743652
2151 100.121307
2151.5 99.790055
2152 99.991328
2152.5 99.816948
2153 100.064874
2153.5 99.966437
2154 100.043714
2154.5 100.167143
2155 99.922925
2155.5 100.256324
2156 99.835306
2156.5 100.363505
2157 99.780661
2157.5 100.098753
2158 99.84566
2158.5 100.106919
2159 99.978369
2159.5 99.886793
2160 100.01533
2160.5 99.91408
2161 100.109088
2161.5 99.623442
2162 100.080764
2162.5 99.66644
2163 100.164068
2163.5 99.834728
2164 100.029564
2164.5 99.991852
2165 99.952382
2165.5 100.098455
2166 99.851906
2166.5 100.242805
2167 99.813712
2167.5 100.436032
2168 99.951714
2168.5 100.131345
2169 99.908018
2169.5 100.129998
2170 99.932706
2170.5 99.859279
2171 99.964345
2171.5 99.893218
2172 100.067103
2172.5 99.740165
2173 100.095737
2173.5 99.897844
2174 100.15651
2174.5 100.009251
2175 99.915034
2175.5 99.996823
2176 99.853796
2176.5 100.200033
2177 99.929184
2177.5 100.134742
2178 99.851978
2178.5 100.232208
2179 99.988151
2179.5 99.970728
2180 99.932855
2180.5 100.009024
2181 100.179803
2181.5 99.860191
2182 100.110996
2182.5 99.772573
2183 100.179172
2183.5 99.758381
2184 100.082934
2184.5 99.883807
2185 99.887753
2185.5 99.978745
2186 99.791706
2186.5 100.125742
2187 99.650443
2187.5 100.258219
2188 99.879754
2188.5 100.229442
2189 99.830645
2189.5 100.241828
2190 99.989575
2190.5 99.974376
2191 100.027227
2191.5 99.954522
2192 100.264502
2192.5 99.805969
2193 100.27287
2193.5 99.833786
2194 100.180125
2194.5 99.805975
2195 100.027001
2195.5 99.925643
2196 99.786031
2196.5 100.098157
2197 99.915165
2197.5 100.178862
2198 99.728572
2198.5 100.280309
2199 99.821091
2199.5 100.071228
2200 99.868423
2200.5 100.115097
2201 100.0314
2201.5 99.92677
2202 100.155497
2202.5 99.839592
2203 100.327492
2203.5 99.767619
2204 100.272572
2204.5 99.852365
2205 100.049961
2205.5 99.874794
2206 100.028372
2206.5 99.917328
2207 99.809968
2207.5 100.13243
2208 99.946606
2208.5 100.182199
2209 99.729896
2209.5 100.228953
2210 99.813724
2210.5 100.131989
2211 99.994916
2211.5 100.032938
2212 100.150335
2212.5 99.941182
2213 100.385201
2213.5 99.896425
2214 100.241923
2214.5 99.765122
2215 100.256109
2215.5 99.846798
2216 99.959487
2216.5 99.927604
2217 100.040972
2217.5 100.08359
2218 99.835765
2218.5 100.114584
2219 99.718666
2219.5 100.025368
2220 99.802899
2220.5 100.180829
2221 99.9587
2221.5 100.061703
2222 100.07695
2222.5 99.927473
2223 100.178957
2223.5 99.806154
2224 100.34591
2224.5 99.773109
2225 100.098503
2225.5 99.866003
2226 100.262415
2226.5 99.864918
2227 99.893975
2227.5 100.04164
2228 99.939466
2228.5 100.112891
2229 99.709648
2229.5 100.128996
2230 99.723744
2230.5 100.226974
2231 99.896145
2231.5 100.042903
2232 100.038493
2232.5 99.903774
2233 100.155711
2233.5 99.843383
2234 100.176609
2234.5 99.685401
2235 100.384903
2235.5 99.887598
2236 100.042927
2236.5 99.882054
2237 100.127614
2237.5 100.047803
2238 99.768621
2238.5 100.101388
2239 99.756932
2239.5 100.120151
2240 99.862766
2240.5 100.130272
2241 99.823093
2241.5 100.012815
2242 100.006568
2242.5 99.884528
2243 100.099146
2243.5 99.792868
2244 100.234723
2244.5 99.800748
2245 100.20144
2245.5 99.880475
2246 100.277114
2246.5 99.844593
2247 100.021195
2247.5 100.092363
2248 100.014853
2248.5 100.002754
2249 99.754667
2249.5 100.119793
2250 99.864048
2250.5 100.23973
2251 99.833512
2251.5 100.085533
2252 99.917281
2252.5 99.961072
2253 100.046086
2253.5 99.891555
2254 100.039577
2254.5 99.711001
2255 100.151455
2255.5 99.889994
2256 100.096905
2256.5 99.814939
2257 100.152647
2257.5 100.050163
2258 100.001621
2258.5 100.020587
2259 99.894744
2259.5 100.160217
2260 99.889106
2260.5 100.240505
2261 99.781728
2261.5 100.092304
2262 99.867177
2262.5 100.143528
2263 99.908948
2263.5 99.772447
2264 100.030804
2264.5 99.761611
2265 100.160253
2265.5 99.680758
2266 100.269377
2266.5 99.882782
2267 100.064349
2267.5 99.826336
2268 100.109601
2268.5 100.070429
2269 99.840111
2269.5 100.362027
2270 99.900889
2270.5 100.229228
2271 99.806291
2271.5 100.155652
2272 99.865025
2272.5 100.008678
2273 99.891013
2273.5 99.944878
2274 99.940926
2274.5 99.740511
2275 100.115061
2275.5 99.833155
2276 100.041711
2276.5 99.814451
2277 100.215924
2277.5 99.889129
2278 100.036824
2278.5 99.9825
2279 99.973905
2279.5 100.210404
2280 99.977869
2280.5 100.320005
2281 99.788404
2281.5 100.232065
2282 99.798602
2282.5 100.251389
2283 99.910855
2283.5 99.991471
2284 99.954134
2284.5 99.981338
2285 100.15465
2285.5 99.724978
2286 100.09675
2286.5 99.734217
2287 100.129557
2287.5 99.809957
2288 99.990225
2288.5 99.932522
2289 99.980038
2289.5 100.147367
2290 99.879223
2290.5 100.182533
2291 99.840307
2291.5 100.323129
2292 99.874479
2292.5 100.207543
2293 99.885458
2293.5 100.118935
2294 100.028241
2294.5 99.911761
2295 100.072026
2295.5 99.968988
2296 100.181198
2296.5 99.740028
2297 100.110662
2297.5 99.789959
2298 100.107324
2298.5 99.866712
2299 100.053525
2299.5 100.021458
2300 99.922872
2300.5 100.249636
2301 99.85007
2301.5 100.130808
2302 99.844432
2302.5 100.368583
2303 100.002897
2303.5 100.044107
2304 99.901253
2304.5 100.108707
2305 100.103378
2305.5 99.849409
2306 100.070548
2306.5 99.828464
2307 100.16731
2307.5 99.775857
2308 100.078046
2308.5 99.848533
2309 100.006783
2309.5 100.049376
2310 99.978572
2310.5 100.054455
2311 99.752855
2311.5 100.259304
2312 99.91166
2312.5 100.174236
2313 99.800479
2313.5 100.27858
2314 99.994868
2314.5 100.045228
2315 100.009394
2315.5 99.912536
2316 100.21559
2316.5 99.780262
2317 100.14838
2317.5 99.759579
2318 100.112963
2318.5 99.838912
2319 100.065231
2319.5 99.94055
2320 99.988574
2320.5 100.067842
2321 99.832809
2321.5 100.064576
2322 99.726379
2322.5 100.249004
2323 99.844015
2323.5 100.214446
2324 99.881637
2324.5 100.186467
2325 99.972481
2325.5 99.876815
2326 100.151491
2326.5 99.867284
2327 100.129485
2327.5 99.765754
2328 100.249112
2328.5 99.784607
2329 100.032699
2329.5 99.930149
2330 100.065041
2330.5 99.853456
2331 99.820799
2331.5 100.099969
2332 99.942172
2332.5 100.121069
2333 99.690878
2333.5 100.232375
2334 99.849665
2334.5 100.173199
2335 99.868375
2335.5 99.939632
2336 100.025475
2336.5 99.964482
2337 100.277078
2337.5 99.807948
2338 100.273705
2338.5 99.815398
2339 100.333834
2339.5 99.915117
2340 100.028396
2340.5 99.95116
2341 100.092995
2341.5 100.014842
2342 99.859816
2342.5 100.045681
2343 99.729425
2343.5 100.093377
2344 99.822849
2344.5 100.106442
2345 99.891043
2345.5 99.961162
2346 99.909806
2346.5 99.96267
2347 100.115955
2347.5 99.852675
2348 100.352061
2348.5 99.89168
2349 100.282705
2349.5 99.885231
2350 100.139809
2350.5 99.913126
2351 100.018024
2351.5 100.003362
2352 99.961936
2352.5 100.068748
2353 99.704659
2353.5 100.073171
2354 99.761724
2354.5 100.102544
2355 99.764174
2355.5 99.971265
2356 99.961013
2356.5 99.97443
2357 100.164628
2357.5 99.853116
2358 100.110877
2358.5 99.863982
2359 100.33555
2359.5 99.863082
2360 100.19052
2360.5 99.856114
2361 100.156033
2361.5 100.018668
2362 99.894929
2362.5 99.973798
2363 99.855942
2363.5 100.204587
2364 99.853635
2364.5 100.089943
2365 99.76303
2365.5 100.069642
2366 99.873638
2366.5 99.947214
2367 99.924725
2367.5 99.86788
2368 100.161505
2368.5 99.934942
2369 100.161719
2369.5 99.7347
2370 100.308931
2370.5 99.853081
2371 100.025868
2371.5 99.878484
2372 100.039065
2372.5 100.048268
2373 99.900222
2373.5 100.18599
2374 99.807048
2374.5 100.171852
2375 99.773312
2375.5 100.174344
2376 99.842519
2376.5 100.1109
2377 99.976593
2377.5 99.996424
2378 99.985856
2378.5 99.683082
2379 100.184476
2379.5 99.784988
2380 100.120604
2380.5 99.828464
2381 100.318122
2381.5 99.992675
2382 100.022364
2382.5 99.831992
2383 99.942833
2383.5 100.121593
2384 99.902093
2384.5 100.276864
2385 99.806041
2385.5 100.090921
2386 99.84805
2386.5 100.154018
2387 99.829715
2387.5 99.972135
2388 99.991989
2388.5 99.998671
2389 100.104117
2389.5 99.745208
2390 100.155807
2390.5 99.871343
2391 100.173628
2391.5 99.767154
2392 100.117314
2392.5 100.020671
2393 99.873751
2393.5 100.027907
2394 99.925274
2394.5 100.271547
2395 99.870032
2395.5 100.311613
2396 99.843669
2396.5 100.111115
2397 99.881512
2397.5 100.136113
2398 99.932325
2398.5 99.902552
2399 100.048053
2399.5 99.905121
2400 100.14571
2400.5 99.751592
2401 100.154293
2401.5 99.799448
2402 100.083482
2402.5 99.854821
2403 100.084913
2403.5 100.083733
2404 99.793845
2404.5 100.128257
2405 99.854857
2405.5 100.220454
2406 99.805111
2406.5 100.349069
2407 99.846333
2407.5 100.086927
2408 99.977022
2408.5 100.007117
2409 99.949729
2409.5 99.820536
2410 100.017822
2410.5 99.75428
2411 100.10637
2411.5 99.688816
2412 99.994242
2412.5 99.887145
2413 100.043893
2413.5 99.991667
2414 99.87697
2414.5 99.994212
2415 99.763614
2415.5 100.327826
2416 99.856126
2416.5 100.15794
2417 99.828917
2417.5 100.295174
2418 99.898422
2418.5 100.048375
2419 99.947542
2419.5 99.96773
2420 100.111067
2420.5 99.73371
2421 100.110245
2421.5 99.751413
2422 100.08018
2422.5 99.888575
2423 100.052691
2423.5 99.907005
2424 99.932849
2424.5 100.040126
2425 99.95302
2425.5 100.123048
2426 99.843001
2426.5 100.418305
2427 99.931192
2427.5 100.283182
2428 99.924576
2428.5 100.146103
2429 100.03792
2429.5 99.905789
2430 99.991518
2430.5 99.948013
2431 100.181818
2431.5 99.71866
2432 100.096869
2432.5 99.757463
2433 100.078607
2433.5 99.934691
2434 99.933112
2434.5 99.990177
2435 99.829376
2435.5 100.184333
2436 99.942541
2436.5 100.156069
2437 99.850279
2437.5 100.325418
2438 99.951804
2438.5 100.050545
2439 99.971193
2439.5 100.005293
2440 100.150728
2440.5 99.875206
2441 100.185037
2441.5 99.772966
2442 100.157869
2442.5 99.865544
2443 100.201607
2443.5 99.835676
2444 99.945045
2444.5 99.924278
2445 99.964499
2445.5 99.943775
2446 99.723321
2446.5 100.20628
2447 99.859148
2447.5 100.109303
2448 99.824417
2448.5 100.24457
2449 100.029182
2449.5 100.000215
2450 99.971128
2450.5 99.991298
2451 100.183904
2451.5 99.867219
2452 100.334883
2452.5 99.898332
2453 100.112116
2453.5 99.811906
2454 100.122273
2454.5 99.905783
2455 99.940878
2455.5 100.124729
2456 99.997467
2456.5 100.055373
2457 99.67109
2457.5 100.178754
2458 99.782276
2458.5 100.10227
2459 99.838656
2459.5 100.037861
2460 100.005484
2460.5 100.064528
2461 100.1284
2461.5 99.766278
2462 100.183177
2462.5 99.864727
2463 100.389767
2463.5 99.855524
2464 100.095189
2464.5 99.839377
2465 100.153339
2465.5 99.912685
2466 99.823004
2466.5 100.141132
2467 99.817139
2467.5 100.139546
2468 99.710649
2468.5 100.114226
2469 99.802649
2469.5 100.062513
2470 99.960566
2470.5 100.04313
2471 100.046003
2471.5 99.793023
2472 100.248027
2472.5 99.924606
2473 100.343895
2473.5 99.819529
2474 100.378764
2474.5 99.953234
2475 100.018311
2475.5 99.985379
2476 100.130498
2476.5 100.139892
2477 99.84144
2477.5 100.094795
2478 99.842119
2478.5 100.13479
2479 99.672598
2479.5 100.113809
2480 99.940979
2480.5 100.054753
2481 100.008118
2481.5 99.897146
2482 100.107324
2482.5 99.809176
2483 100.273621
2483.5 99.846953
2484 100.204754
2484.5 99.876791
2485 100.292385
2485.5 99.988341
2486 99.961978
2486.5 99.961716
2487 99.975783
2487.5 100.209808
2488 99.770886
2488.5 100.169337
2489 99.811035
2489.5 100.165009
2490 99.807358
2490.5 100.091529
2491 99.876171
2491.5 99.879438
2492 100.162816
2492.5 99.849218
2493 100.070906
2493.5 99.800873
2494 100.262523
2494.5 99.9699
2495 100.226283
2495.5 99.864036
2496 100.129092
2496.5 99.974829
2497 99.934924
2497.5 100.037289
2498 99.811918
2498.5 100.163829
2499 99.798095
2499.5 100.132096
2500 99.866688
2500.5 99.969202
2501 99.793744
2501.5 100.053215
2502 99.939245
2502.5 99.850005
2503 100.211191
2503.5 99.838996
2504 100.121045
2504.5 99.860847
2505 100.375021
2505.5 99.907726
2506 100.140357
2506.5 99.864131
2507 100.112343
2507.5 100.195873
2508 99.865508
2508.5 100.244558
2509 99.889386
2509.5 100.231266
2510 99.806821
2510.5 100.194454
2511 99.772835
2511.5 99.967593
2512 99.982059
2512.5 99.891114
2513 100.041974
2513.5 99.857342
2514 100.133181
2514.5 99.815255
2515 100.144124
2515.5 99.753195
2516 100.136483
2516.5 99.90111
2517 99.901557
2517.5 100.051224
2518 99.837369
2518.5 100.170553
2519 99.860042
2519.5 100.306273
2520 99.937314
2520.5 100.169265
2521 99.763381
2521.5 100.181115
2522 99.942273
2522.5 100.061548
2523 99.948251
2523.5 99.934918
2524 100.166488
2524.5 99.803603
2525 100.132501
2525.5 99.787903
2526 100.046241
2526.5 99.763697
2527 100.04741
2527.5 100.030565
2528 99.890399
2528.5 100.153732
2529 99.784982
2529.5 100.077951
2530 99.832964
2530.5 100.035858
2531 99.66628
2531.5 100.067043
2532 99.877
2532.5 100.250101
2533 100.062501
2533.5 99.843717
2534 100.107622
2534.5 99.915558
2535 100.165474
2535.5 99.571192
2536 100.013757
2536.5 99.895924
2537 100.121295
2537.5 99.905658
2538 99.927533
2538.5 99.941945
2539 99.858844
2539.5 100.152099
2540 99.641776
2540.5 100.119925
2541 99.75692
2541.5 100.277722
2542 99.835253
2542.5 100.143278
2543 99.878526
2543.5 100.102413
2544 100.068176
2544.5 99.849558
2545 100.071549
2545.5 99.812043
2546 100.147247
2546.5 100.05697
2547 100.121117
2547.5 99.873686
2548 100.008655
2548.5 100.005949
2549 99.897057
2549.5 100.105619
2550 99.731821
2550.5 100.168574
2551 99.811339
2551.5 100.238109
2552 99.831653
2552.5 100.284481
2553 99.897414
2553.5 100.11903
2554 100.01353
2554.5 99.968356
2555 100.030804
2555.5 99.846047
2556 100.079179
2556.5 99.714082
2557 100.399554
2557.5 99.942815
2558 99.705493
2558.5 100.083756
2559 100.082433
2559.5 99.658883
2560 99.639195
2560.5 100.327551
2561 99.454492
2561.5 100.243509
2562 100.109351
2562.5 100.273502
2563 99.900699
2563.5 100.155592
2564 100.075603
2564.5 100.007963
2565 99.978501
2565.5 99.965638
2566 100.209093
2566.5 99.735063
2567 100.186253
2567.5 99.693799
2568 99.992877
2568.5 99.670994
2569 99.89503
2569.5 99.981129
2570 99.817371
2570.5 100.017273
2571 99.935633
2571.5 100.120771
2572 99.636036
2572.5 100.304997
2573 100.066352
2573.5 100.037026
2574 99.845743
2574.5 100.010586
2575 100.123417
2575.5 99.940795
2576 100.161326
2576.5 99.934649
2577 100.243831
2577.5 99.75158
2578 100.299335
2578.5 99.799788
2579 99.987811
2579.5 99.831986
2580 99.972689
2580.5 100.001049
2581 99.62706
2581.5 100.101614
2582 99.977589
2582.5 100.169742
2583 99.613458
2583.5 100.052989
2584 99.914873
2584.5 99.969435
2585 100.009346
2585.5 99.867278
2586 100.14292
2586.5 99.902362
2587 100.500202
2587.5 99.769503
2588 100.232685
2588.5 99.859983
2589 100.231361
2589.5 99.811339
2590 100.034034
2590.5 99.95243
2591 100.056219
2591.5 100.024772
2592 99.664801
2592.5 100.116622
2593 99.868023
2593.5 99.901068
2594 99.873686
2594.5 100.060439
2595 99.99209
2595.5 99.859029
2596 100.279546
2596.5 100.017619
2597 100.138748
2597.5 99.790025
2598 100.509739
2598.5 99.699843
2599 100.189364
2599.5 99.863815
2600 100.058401
2600.5 99.952018
2601 99.781537
2601.5 100.069475
2602 99.950355
2602.5 99.952424
2603 99.62163
2603.5 100.047112
2604 99.895495
2604.5 100.299358
2605 99.868155
2605.5 99.899274
2606 100.069487
2606.5 99.908245
2607 100.188315
2607.5 99.719471
2608 100.272107
2608.5 99.881351
2609 100.474024
2609.5 99.931329
2610 100.134408
2610.5 99.900556
2611 100.095332
2611.5 100.209272
2612 99.925053
2612.5 99.974149
2613 99.794853
2613.5 100.151062
2614 99.740738
2614.5 100.112343
2615 99.886501
2615.5 99.868101
2616 99.76539
2616.5 99.97679
2617 100.067973
2617.5 99.699354
2618 100.16551
2618.5 99.735659
2619 100.269032
2619.5 99.838597
2620 100.163281
2620.5 99.994379
2621 99.866301
2621.5 99.614781
2622 100.058389
2622.5 100.012064
2623 100.013328
2623.5 99.716187
2624 100.21652
2624.5 99.77237
2625 100.134587
2625.5 99.719048
2626 99.838567
2626.5 99.98759
2627 100.029504
2627.5 100.038755
2628 99.721563
2628.5 100.273657
2629 99.80343
2629.5 100.497329
2630 99.920744
2630.5 99.976754
2631 100.084865
2631.5 100.130415
2632 99.834585
2632.5 99.875772
2633 99.95144
2633.5 100.201356
2634 100.15502
2634.5 99.770921
2635 100.146794
2635.5 99.800241
2636 99.980825
2636.5 100.003839
2637 100.058424
2637.5 100.040555
2638 99.796206
2638.5 100.222647
2639 99.845147
2639.5 100.186253
2640 99.674428
2640.5 100.227749
2641 99.818295
2641.5 100.228667
2642 100.016367
2642.5 100.052845
2643 100.099289
2643.5 99.869227
2644 100.023711
2644.5 99.809653
2645 100.195348
2645.5 99.777073
2646 100.116408
2646.5 99.914247
2647 100.072658
2647.5 100.107574
2648 99.87089
2648.5 100.033581
2649 99.697179
2649.5 100.231576
2650 99.689549
2650.5 100.185287
2651 99.799776
2651.5 100.223279
2652 99.996132
2652.5 99.954742
2653 99.956369
2653.5 100.044489
2654 100.217474
2654.5 99.829179
2655 100.182986
2655.5 99.838084
2656 100.113702
2656.5 99.83598
2657 100.081861
2657.5 99.805164
2658 99.869257
2658.5 100.142086
2659 99.723142
2659.5 100.098383
2660 99.800289
2660.5 100.160527
2661 99.815708
2661.5 100.388145
2662 99.64307
2662.5 100.14168
2663 99.97744
2663.5 99.983531
2664 100.24308
2664.5 99.73563
2665 100.298464
2665.5 99.755406
2666 100.132966
2666.5 99.674499
2667 100.087678
2667.5 99.886227
2668 100.088215
2668.5 99.824148
2669 99.900305
2669.5 100.127006
2670 99.900484
2670.5 99.939615
2671 99.803674
2671.5 100.167823
2672 99.912304
2672.5 100.07664
2673 99.877316
2673.5 99.980402
2674 100.092614
2674.5 99.935597
2675 100.11605
2675.5 99.806404
2676 100.346863
2676.5 99.849141
2677 100.24184
2677.5 99.848473
2678 99.982595
2678.5 100.100946
2679 100.008821
2679.5 100.046384
2680 99.801618
2680.5 100.113976
2681 99.926072
2681.5 100.189459
2682 99.757361
2682.5 100.025439
2683 99.894726
2683.5 100.097239
2684 100.024283
2684.5 99.784786
2685 100.101697
2685.5 99.959034
2686 100.204504
2686.5 99.950832
2687 100.184393
2687.5 99.937153
2688 100.286043
2688.5 99.995434
2689 99.978477
2689.5 99.954951
2690 99.95721
2690.5 100.016284
2691 99.814248
2691.5 99.935365
2692 99.849957
2692.5 100.217617
2693 99.575198
2693.5 100.117838
2694 99.826008
2694.5 99.988264
2695 100.111985
2695.5 99.883175
2696 100.080705
2696.5 99.773741
2697 100.436866
2697.5 99.832422
2698 100.176072
2698.5 99.820936
2699 100.298095
2699.5 99.983066
2700 100.051296
2700.5 99.971974
2701 99.963045
2701.5 100.137651
2702 99.758565
2702.5 100.132966
2703 99.805361
2703.5 100.117421
2704 99.835908
2704.5 99.96587
2705 99.935621
2705.5 100.051081
2706 100.001657
2706.5 99.778986
2707 100.10215
2707.5 99.702066
2708 100.391209
2708.5 99.801874
2709 100.286317
2709.5 99.860322
2710 100.199163
2710.5 100.122941
2711 99.860746
2711.5 100.156379
2712 99.961525
2712.5 100.257146
2713 99.808151
2713.5 100.326371
2714 99.948382
2714.5 99.993747
2715 99.876946
2715.5 100.079381
2716 99.949265
2716.5 99.817419
2717 100.131607
2717.5 99.767703
2718 100.225234
2718.5 99.879992
2719 100.1477
2719.5 99.674183
2720 100.067592
2720.5 99.961782
2721 100.112092
2721.5 100.047064
2722 99.862486
2722.5 100.403714
2723 99.939442
2723.5 100.294828
2724 99.928993
2724.5 100.252295
2725 100.065923
2725.5 100.003159
2726 100.106645
2726.5 99.96146
2727 99.953479
2727.5 99.696362
2728 100.193119
2728.5 99.997967
2729 100.05064
2729.5 99.813247
2730 100.229931
2730.5 100.001442
2731 100.026703
2731.5 99.922901
2732 100.012934
2732.5 100.257325
2733 99.818659
2733.5 100.462389
2734 99.668026
2734.5 100.123394
2735 99.704468
2735.5 100.183713
2736 99.944139
2736.5 99.843192
2737 100.006104
2737.5 99.70696
2738 100.160623
2738.5 99.638534
2739 100.100064
2739.5 99.804544
2740 100.097811
2740.5 99.881059
2741 100.12753
2741.5 100.055063
2742 100.015235
2742.5 100.194347
2743 100.079691
2743.5 100.068915
2744 99.891591
2744.5 100.393164
2745 99.899638
2745.5 100.180089
2746 99.980485
2746.5 100.143588
2747 99.856848
2747.5 99.800855
2748 100.100541
2748.5 99.807888
2749 100.11071
2749.5 99.72862
2750 100.05064
2750.5 99.793005
2751 100.217295
2751.5 99.785727
2752 99.981821
2752.5 100.125837
2753 99.948895
2753.5 100.15012
2754 99.698991
2754.5 100.144792
2755 99.760026
2755.5 100.347674
2756 99.818265
2756.5 100.00751
2757 99.876225
2757.5 100.16458
2758 100.150204
2758.5 99.769324
2759 100.072181
2759.5 99.768555
2760 100.162303
2760.5 99.86034
2761 100.135052
2761.5 100.005376
2762 99.962193
2762.5 100.07683
2763 99.869728
2763.5 100.114942
2764 99.643701
2764.5 100.252855
2765 99.892873
2765.5 100.169015
2766 99.768704
2766.5 100.173199
2767 100.011039
2767.5 99.987555
2768 100.059223
2768.5 99.939114
2769 100.230563
2769.5 99.830663
2770 100.228035
2770.5 99.903375
2771 100.109959
2771.5 99.898887
2772 100.08558
2772.5 99.938226
2773 99.942487
2773.5 100.140893
2774 99.79353
2774.5 100.087488
2775 99.718285
2775.5 100.420034
2776 99.924165
2776.5 100.102317
2777 99.921024
2777.5 100.149047
2778 100.076544
2778.5 99.886632
2779 100.101924
2779.5 99.88392
2780 100.187385
2780.5 99.802858
2781 100.17662
2781.5 99.747247
2782 100.071216
2782.5 99.914122
2783 100.013638
2783.5 99.960005
2784 99.747926
2784.5 100.167274
2785 99.870026
2785.5 100.222433
2786 99.731225
2786.5 100.203645
2787 99.907029
2787.5 100.035274
2788 99.955827
2788.5 99.964654
2789 100.240958
2789.5 99.921542
2790 100.313175
2790.5 99.865812
2791 100.212371
2791.5 99.773288
2792 100.14652
2792.5 100.018108
2793 100.018513
2793.5 99.994826
2794 100.036955
2794.5 100.12151
2795 99.697191
2795.5 100.22167
2796 99.705768
2796.5 100.092375
2797 99.758154
2797.5 100.126946
2798 99.95473
2798.5 99.776638
2799 100.044262
2799.5 99.894959
2800 100.325274
##END=
